*****  MODTRAN3 Version 1.3  12/1/95  *****
0 CARD 1  *****T   6    3    1    0    0    0    0    0    0    0    0    0   -1   0.000  -1.00
 co2mx co2rat ch4rat h2orat t_o3rat s_o3rat scalefreon    800.00000       2.4242425       1.0000000       1.0000000       1.0000000       1.0000000       1.0000000    
0 CARD 2  *****    0    0    0    0    0    0     0.000     0.000     0.000     0.000     0.000
0 CARD 3  *****    70.000     0.000   180.000     0.000     0.000     0.000    0
0 CARD 4  *****         2      2200         2         3
0 PROGRAM WILL COMPUTE RADIANCE                
0 ATMOSPHERIC MODEL
          TEMPERATURE =    6     1976 U S STANDARD   
          WATER VAPOR =    6     1976 U S STANDARD   
          OZONE       =    6     1976 U S STANDARD   
                      M4 =     6 M5 =     6 M6 =     6 MDEF =     1
0 SLANT PATH TO SPACE
          H1    =     70.000 KM
          HMIN  =      0.000 KM
          ANGLE =    180.000 DEG
0 FREQUENCY RANGE
             IV1 =         2 CM-1  (   5000.00 MICROMETERS)
             IV2 =      2200 CM-1  (      4.55 MICROMETERS)
             IDV =         2 CM-1
           IFWHM =         3 CM-1
1
  ATMOSPHERIC PROFILES

   I     Z       P       T        N2       CNTMSLF MOL SCAT     N-1     O3 (UV)  O2 (UV)
        (KM)    (MB)    (K)            (MOL/CM2 KM)   (-)       (-)  (ATM CM/KM) (ATM CM/KM)

   1     0.00 1013.000  289.0  8.200E-01 1.557E+20 9.451E-01 2.715E-04 2.512E-03 3.522E+04
   2     1.00  898.800  282.5  6.756E-01 7.884E+19 8.578E-01 2.465E-04 2.513E-03 3.067E+04
   3     2.00  795.000  276.0  5.538E-01 3.760E+19 7.766E-01 2.232E-04 2.512E-03 2.668E+04
   4     3.00  701.200  269.5  4.518E-01 1.449E+19 7.015E-01 2.017E-04 2.326E-03 2.318E+04
   5     4.00  616.600  263.0  3.669E-01 5.410E+18 6.321E-01 1.817E-04 2.140E-03 2.013E+04
   6     5.00  540.500  256.5  2.964E-01 1.831E+18 5.682E-01 1.634E-04 2.139E-03 1.746E+04
   7     6.00  472.200  249.9  2.381E-01 6.457E+17 5.093E-01 1.465E-04 2.093E-03 1.513E+04
   8     7.00  411.100  243.4  1.902E-01 1.971E+17 4.552E-01 1.309E-04 2.279E-03 1.310E+04
   9     8.00  356.500  236.9  1.510E-01 6.430E+16 4.056E-01 1.166E-04 2.418E-03 1.132E+04
  10     9.00  308.000  230.4  1.192E-01 9.456E+15 3.603E-01 1.036E-04 3.301E-03 9.775E+03
  11    10.00  265.000  224.1  9.333E-02 1.446E+15 3.188E-01 9.170E-05 4.184E-03 8.422E+03
  12    11.00  227.000  217.6  7.264E-02 3.002E+14 2.813E-01 8.090E-05 6.041E-03 7.247E+03
  13    12.00  194.000  217.4  5.310E-02 6.108E+13 2.405E-01 6.917E-05 7.439E-03 6.026E+03
  14    13.00  165.800  217.4  3.879E-02 1.446E+13 2.055E-01 5.912E-05 7.900E-03 5.025E+03
  15    14.00  141.700  217.4  2.833E-02 3.151E+12 1.757E-01 5.052E-05 8.830E-03 4.204E+03
  16    15.00  121.100  217.4  2.069E-02 1.638E+12 1.501E-01 4.318E-05 9.759E-03 3.526E+03
  17    16.00  103.500  217.4  1.511E-02 7.467E+11 1.283E-01 3.690E-05 1.116E-02 2.965E+03
  18    17.00   88.500  217.4  1.105E-02 5.187E+11 1.097E-01 3.155E-05 1.301E-02 2.500E+03
  19    18.00   75.650  217.4  8.075E-03 3.741E+11 9.379E-02 2.697E-05 1.487E-02 2.111E+03
  20    19.00   64.670  217.4  5.901E-03 2.770E+11 8.017E-02 2.306E-05 1.626E-02 1.786E+03
  21    20.00   55.290  217.4  4.313E-03 2.077E+11 6.854E-02 1.971E-05 1.767E-02 1.513E+03
  22    21.00   47.290  218.4  3.129E-03 1.566E+11 5.838E-02 1.679E-05 1.767E-02 1.279E+03
  23    22.00   40.470  219.4  2.271E-03 1.188E+11 4.974E-02 1.430E-05 1.813E-02 1.082E+03
  24    23.00   34.670  220.4  1.652E-03 9.225E+10 4.242E-02 1.220E-05 1.767E-02 9.171E+02
  25    24.00   29.720  221.4  1.203E-03 7.042E+10 3.620E-02 1.041E-05 1.674E-02 7.787E+02
  26    25.00   25.490  222.4  8.768E-04 5.436E+10 3.090E-02 8.888E-06 1.581E-02 6.620E+02
  27    30.00   11.970  227.3  1.851E-04 1.309E+10 1.420E-02 4.084E-06 9.299E-03 3.001E+02
  28    35.00    5.746  237.3  3.913E-05 2.975E+09 6.529E-03 1.878E-06 5.113E-03 1.371E+02
  29    40.00    2.871  251.1  8.718E-06 6.971E+08 3.082E-03 8.863E-07 2.248E-03 6.453E+01
  30    45.00    1.491  265.0  2.113E-06 1.826E+08 1.517E-03 4.363E-07 7.959E-04 3.172E+01
  31    50.00    0.798  271.5  5.763E-07 4.982E+07 7.923E-04 2.279E-07 2.454E-04 1.656E+01
  32    70.00    0.052  220.4  3.744E-09 1.452E+05 6.386E-05 1.837E-08 1.915E-06 1.334E+00
  33   100.00    0.000  195.9  1.781E-13 9.023E-02 4.405E-07 1.267E-10 1.761E-08 7.043E-03
1
  ATMOSPHERIC PROFILES

   I     Z       P       T      CNTMFRN     HNO3    AEROSOL 1 AEROSOL 2 AEROSOL 3 AEROSOL 4 AER1*RH   CIRRUS         RH
        (KM)    (MB)    (K)   MOL/CM2 KM ATM CM/KM   (-)       (-)       (-)       (-)       (-)       (-)      (PERCNT)

   1     0.00 1013.000  289.0  1.997E+22 0.000E+00 0.000E+00 0.000E+00 0.000E+00 0.000E+00 0.000E+00 0.000E+00 4.368E+01
   2     1.00  898.800  282.5  1.292E+22 0.000E+00 0.000E+00 0.000E+00 0.000E+00 0.000E+00 0.000E+00 0.000E+00 4.656E+01
   3     2.00  795.000  276.0  8.089E+21 0.000E+00 0.000E+00 0.000E+00 0.000E+00 0.000E+00 0.000E+00 0.000E+00 4.924E+01
   4     3.00  701.200  269.5  4.541E+21 0.000E+00 0.000E+00 0.000E+00 0.000E+00 0.000E+00 0.000E+00 0.000E+00 4.793E+01
   5     4.00  616.600  263.0  2.503E+21 0.000E+00 0.000E+00 0.000E+00 0.000E+00 0.000E+00 0.000E+00 0.000E+00 4.715E+01
   6     5.00  540.500  256.5  1.310E+21 0.000E+00 0.000E+00 0.000E+00 0.000E+00 0.000E+00 0.000E+00 0.000E+00 4.541E+01
   7     6.00  472.200  249.9  6.976E+20 0.000E+00 0.000E+00 0.000E+00 0.000E+00 0.000E+00 0.000E+00 0.000E+00 4.601E+01
   8     7.00  411.100  243.4  3.446E+20 0.000E+00 0.000E+00 0.000E+00 0.000E+00 0.000E+00 0.000E+00 0.000E+00 4.485E+01
   9     8.00  356.500  236.9  1.754E+20 0.000E+00 0.000E+00 0.000E+00 0.000E+00 0.000E+00 0.000E+00 0.000E+00 4.687E+01
  10     9.00  308.000  230.4  5.977E+19 0.000E+00 0.000E+00 0.000E+00 0.000E+00 0.000E+00 0.000E+00 0.000E+00 3.422E+01
  11    10.00  265.000  224.1  2.069E+19 0.000E+00 0.000E+00 0.000E+00 0.000E+00 0.000E+00 0.000E+00 0.000E+00 2.634E+01
  12    11.00  227.000  217.6  8.316E+18 0.000E+00 0.000E+00 0.000E+00 0.000E+00 0.000E+00 0.000E+00 0.000E+00 2.503E+01
  13    12.00  194.000  217.4  3.207E+18 0.000E+00 0.000E+00 0.000E+00 0.000E+00 0.000E+00 0.000E+00 0.000E+00 1.142E+01
  14    13.00  165.800  217.4  1.334E+18 0.000E+00 0.000E+00 0.000E+00 0.000E+00 0.000E+00 0.000E+00 0.000E+00 5.558E+00
  15    14.00  141.700  217.4  5.321E+17 0.000E+00 0.000E+00 0.000E+00 0.000E+00 0.000E+00 0.000E+00 0.000E+00 2.595E+00
  16    15.00  121.100  217.4  3.279E+17 0.000E+00 0.000E+00 0.000E+00 0.000E+00 0.000E+00 0.000E+00 0.000E+00 1.871E+00
  17    16.00  103.500  217.4  1.892E+17 0.000E+00 0.000E+00 0.000E+00 0.000E+00 0.000E+00 0.000E+00 0.000E+00 1.263E+00
  18    17.00   88.500  217.4  1.348E+17 0.000E+00 0.000E+00 0.000E+00 0.000E+00 0.000E+00 0.000E+00 0.000E+00 1.053E+00
  19    18.00   75.650  217.4  9.788E+16 0.000E+00 0.000E+00 0.000E+00 0.000E+00 0.000E+00 0.000E+00 0.000E+00 8.940E-01
  20    19.00   64.670  217.4  7.199E+16 0.000E+00 0.000E+00 0.000E+00 0.000E+00 0.000E+00 0.000E+00 0.000E+00 7.692E-01
  21    20.00   55.290  217.4  5.331E+16 0.000E+00 0.000E+00 0.000E+00 0.000E+00 0.000E+00 0.000E+00 0.000E+00 6.662E-01
  22    21.00   47.290  218.4  3.942E+16 0.000E+00 0.000E+00 0.000E+00 0.000E+00 0.000E+00 0.000E+00 0.000E+00 5.207E-01
  23    22.00   40.470  219.4  2.925E+16 0.000E+00 0.000E+00 0.000E+00 0.000E+00 0.000E+00 0.000E+00 0.000E+00 4.042E-01
  24    23.00   34.670  220.4  2.198E+16 0.000E+00 0.000E+00 0.000E+00 0.000E+00 0.000E+00 0.000E+00 0.000E+00 3.177E-01
  25    24.00   29.720  221.4  1.639E+16 0.000E+00 0.000E+00 0.000E+00 0.000E+00 0.000E+00 0.000E+00 0.000E+00 2.479E-01
  26    25.00   25.490  222.4  1.229E+16 0.000E+00 0.000E+00 0.000E+00 0.000E+00 0.000E+00 0.000E+00 0.000E+00 1.947E-01
  27    30.00   11.970  227.3  2.772E+15 0.000E+00 0.000E+00 0.000E+00 0.000E+00 0.000E+00 0.000E+00 0.000E+00 5.616E-02
  28    35.00    5.746  237.3  6.077E+14 0.000E+00 0.000E+00 0.000E+00 0.000E+00 0.000E+00 0.000E+00 0.000E+00 9.796E-03
  29    40.00    2.871  251.1  1.388E+14 0.000E+00 0.000E+00 0.000E+00 0.000E+00 0.000E+00 0.000E+00 0.000E+00 1.366E-03
  30    45.00    1.491  265.0  3.498E+13 0.000E+00 0.000E+00 0.000E+00 0.000E+00 0.000E+00 0.000E+00 0.000E+00 2.359E-04
  31    50.00    0.798  271.5  9.542E+12 0.000E+00 0.000E+00 0.000E+00 0.000E+00 0.000E+00 0.000E+00 0.000E+00 7.719E-05
  32    70.00    0.052  220.4  4.153E+10 0.000E+00 0.000E+00 0.000E+00 0.000E+00 0.000E+00 0.000E+00 0.000E+00 3.986E-04
  33   100.00    0.000  195.9  2.258E+05 0.000E+00 0.000E+00 0.000E+00 0.000E+00 0.000E+00 0.000E+00 0.000E+00 7.694E-06
1
  ATMOSPHERIC PROFILES

   I      Z       P       T      H2O      O3       CO2      CO       CH4      N2O      O2       NH3      NO       NO2      SO2
         (KM)    (MB)    (K)  (                                    MBAR                                                       )
   1     0.00 1013.000  289.0  5.88E+00 2.66E-02 8.00E+02 0.00E+00 1.70E+00 0.00E+00 2.09E+05 0.00E+00 0.00E+00 0.00E+00 0.00E+00
   2     1.00  898.800  282.5  4.18E+00 2.93E-02 8.00E+02 0.00E+00 1.70E+00 0.00E+00 2.09E+05 0.00E+00 0.00E+00 0.00E+00 0.00E+00
   3     2.00  795.000  276.0  2.89E+00 3.24E-02 8.00E+02 0.00E+00 1.70E+00 0.00E+00 2.09E+05 0.00E+00 0.00E+00 0.00E+00 0.00E+00
   4     3.00  701.200  269.5  1.79E+00 3.32E-02 8.00E+02 0.00E+00 1.70E+00 0.00E+00 2.09E+05 0.00E+00 0.00E+00 0.00E+00 0.00E+00
   5     4.00  616.600  263.0  1.10E+00 3.39E-02 8.00E+02 0.00E+00 1.70E+00 0.00E+00 2.09E+05 0.00E+00 0.00E+00 0.00E+00 0.00E+00
   6     5.00  540.500  256.5  6.37E-01 3.77E-02 8.00E+02 0.00E+00 1.70E+00 0.00E+00 2.09E+05 0.00E+00 0.00E+00 0.00E+00 0.00E+00
   7     6.00  472.200  249.9  3.78E-01 4.11E-02 8.00E+02 0.00E+00 1.70E+00 0.00E+00 2.09E+05 0.00E+00 0.00E+00 0.00E+00 0.00E+00
   8     7.00  411.100  243.4  2.09E-01 5.01E-02 8.00E+02 0.00E+00 1.70E+00 0.00E+00 2.09E+05 0.00E+00 0.00E+00 0.00E+00 0.00E+00
   9     8.00  356.500  236.9  1.19E-01 5.97E-02 8.00E+02 0.00E+00 1.70E+00 0.00E+00 2.09E+05 0.00E+00 0.00E+00 0.00E+00 0.00E+00
  10     9.00  308.000  230.4  4.58E-02 9.17E-02 8.00E+02 0.00E+00 1.69E+00 0.00E+00 2.09E+05 0.00E+00 0.00E+00 0.00E+00 0.00E+00
  11    10.00  265.000  224.1  1.79E-02 1.31E-01 8.00E+02 0.00E+00 1.68E+00 0.00E+00 2.09E+05 0.00E+00 0.00E+00 0.00E+00 0.00E+00
  12    11.00  227.000  217.6  8.16E-03 2.15E-01 8.00E+02 0.00E+00 1.67E+00 0.00E+00 2.09E+05 0.00E+00 0.00E+00 0.00E+00 0.00E+00
  13    12.00  194.000  217.4  3.68E-03 3.10E-01 8.00E+02 0.00E+00 1.66E+00 0.00E+00 2.09E+05 0.00E+00 0.00E+00 0.00E+00 0.00E+00
  14    13.00  165.800  217.4  1.79E-03 3.85E-01 8.00E+02 0.00E+00 1.64E+00 0.00E+00 2.09E+05 0.00E+00 0.00E+00 0.00E+00 0.00E+00
  15    14.00  141.700  217.4  8.36E-04 5.03E-01 8.00E+02 0.00E+00 1.63E+00 0.00E+00 2.09E+05 0.00E+00 0.00E+00 0.00E+00 0.00E+00
  16    15.00  121.100  217.4  6.03E-04 6.50E-01 8.00E+02 0.00E+00 1.61E+00 0.00E+00 2.09E+05 0.00E+00 0.00E+00 0.00E+00 0.00E+00
  17    16.00  103.500  217.4  4.07E-04 8.70E-01 8.00E+02 0.00E+00 1.58E+00 0.00E+00 2.09E+05 0.00E+00 0.00E+00 0.00E+00 0.00E+00
  18    17.00   88.500  217.4  3.39E-04 1.19E+00 8.00E+02 0.00E+00 1.55E+00 0.00E+00 2.09E+05 0.00E+00 0.00E+00 0.00E+00 0.00E+00
  19    18.00   75.650  217.4  2.88E-04 1.59E+00 8.00E+02 0.00E+00 1.52E+00 0.00E+00 2.09E+05 0.00E+00 0.00E+00 0.00E+00 0.00E+00
  20    19.00   64.670  217.4  2.48E-04 2.03E+00 8.00E+02 0.00E+00 1.48E+00 0.00E+00 2.09E+05 0.00E+00 0.00E+00 0.00E+00 0.00E+00
  21    20.00   55.290  217.4  2.15E-04 2.58E+00 8.00E+02 0.00E+00 1.42E+00 0.00E+00 2.09E+05 0.00E+00 0.00E+00 0.00E+00 0.00E+00
  22    21.00   47.290  218.4  1.86E-04 3.03E+00 8.00E+02 0.00E+00 1.36E+00 0.00E+00 2.09E+05 0.00E+00 0.00E+00 0.00E+00 0.00E+00
  23    22.00   40.470  219.4  1.62E-04 3.65E+00 8.00E+02 0.00E+00 1.27E+00 0.00E+00 2.09E+05 0.00E+00 0.00E+00 0.00E+00 0.00E+00
  24    23.00   34.670  220.4  1.43E-04 4.17E+00 8.00E+02 0.00E+00 1.19E+00 0.00E+00 2.09E+05 0.00E+00 0.00E+00 0.00E+00 0.00E+00
  25    24.00   29.720  221.4  1.25E-04 4.63E+00 8.00E+02 0.00E+00 1.12E+00 0.00E+00 2.09E+05 0.00E+00 0.00E+00 0.00E+00 0.00E+00
  26    25.00   25.490  222.4  1.10E-04 5.12E+00 8.00E+02 0.00E+00 1.05E+00 0.00E+00 2.09E+05 0.00E+00 0.00E+00 0.00E+00 0.00E+00
  27    30.00   11.970  227.3  5.39E-05 6.55E+00 8.00E+02 0.00E+00 9.14E-01 0.00E+00 2.09E+05 0.00E+00 0.00E+00 0.00E+00 0.00E+00
  28    35.00    5.746  237.3  2.57E-05 7.84E+00 8.00E+02 0.00E+00 7.46E-01 0.00E+00 2.09E+05 0.00E+00 0.00E+00 0.00E+00 0.00E+00
  29    40.00    2.871  251.1  1.24E-05 7.30E+00 8.00E+02 0.00E+00 5.64E-01 0.00E+00 2.09E+05 0.00E+00 0.00E+00 0.00E+00 0.00E+00
  30    45.00    1.491  265.0  6.37E-06 5.25E+00 8.00E+02 0.00E+00 3.63E-01 0.00E+00 2.09E+05 0.00E+00 0.00E+00 0.00E+00 0.00E+00
  31    50.00    0.798  271.5  3.32E-06 3.10E+00 8.00E+02 0.00E+00 2.10E-01 0.00E+00 2.09E+05 0.00E+00 0.00E+00 0.00E+00 0.00E+00
  32    70.00    0.052  220.4  1.80E-07 3.00E-01 8.00E+02 0.00E+00 1.50E-01 0.00E+00 2.09E+05 0.00E+00 0.00E+00 0.00E+00 0.00E+00
  33   100.00    0.000  195.9  1.41E-10 4.00E-01 4.73E+02 0.00E+00 1.20E-01 0.00E+00 1.60E+05 0.00E+00 0.00E+00 0.00E+00 0.00E+00
1
  ATMOSPHERIC PROFILES

   I      Z       P       T     CFC-11   CFC-12   CFC-13   CFC-14   CFC-22   CFC-113  CFC-114  CFC-115  CLONO2    HNO4    CHCL2F 
                                 CCL4     N2O5  
         (KM)    (MB)    (K)  (                                 ATM CM/KM                                                     )
   1     0.00 1013.000  289.0  1.32E-05 2.27E-05 9.44E-14 9.44E-14 5.67E-06 1.79E-06 1.13E-06 9.44E-14 5.43E-07 4.10E-08 9.44E-14
                               1.23E-05 2.29E-11
   2     1.00  898.800  282.5  1.20E-05 2.06E-05 8.57E-14 8.57E-14 5.14E-06 1.63E-06 1.03E-06 8.57E-14 4.40E-07 1.83E-07 8.57E-14
                               1.11E-05 8.18E-11
   3     2.00  795.000  276.0  1.09E-05 1.86E-05 7.76E-14 7.76E-14 4.65E-06 1.47E-06 9.31E-07 7.76E-14 3.50E-07 2.98E-07 7.76E-14
                               1.01E-05 1.29E-10
   4     3.00  701.200  269.5  9.81E-06 1.68E-05 7.01E-14 7.01E-14 4.20E-06 1.33E-06 8.41E-07 7.01E-14 2.72E-07 3.88E-07 7.01E-14
                               9.11E-06 1.67E-10
   5     4.00  616.600  263.0  8.84E-06 1.52E-05 6.32E-14 6.32E-14 3.78E-06 1.20E-06 7.58E-07 6.32E-14 2.06E-07 4.57E-07 6.32E-14
                               8.21E-06 1.95E-10
   6     5.00  540.500  256.5  7.95E-06 1.36E-05 5.68E-14 5.68E-14 3.39E-06 1.08E-06 6.81E-07 5.68E-14 1.56E-07 1.03E-06 5.68E-14
                               7.37E-06 2.05E-10
   7     6.00  472.200  249.9  7.13E-06 1.22E-05 5.09E-14 5.09E-14 3.04E-06 9.67E-07 6.11E-07 5.09E-14 1.15E-07 1.48E-06 5.09E-14
                               6.59E-06 2.10E-10
   8     7.00  411.100  243.4  6.37E-06 1.09E-05 4.55E-14 4.55E-14 2.72E-06 8.64E-07 5.46E-07 4.55E-14 7.94E-08 1.82E-06 4.55E-14
                               5.88E-06 2.11E-10
   9     8.00  356.500  236.9  5.67E-06 9.73E-06 4.05E-14 4.05E-14 2.42E-06 7.70E-07 4.86E-07 4.05E-14 5.03E-08 2.06E-06 4.05E-14
                               5.23E-06 2.09E-10
  10     9.00  308.000  230.4  5.03E-06 8.63E-06 3.60E-14 3.60E-14 2.15E-06 6.83E-07 4.32E-07 3.60E-14 4.35E-08 1.77E-06 3.60E-14
                               4.64E-06 2.07E-10
  11    10.00  265.000  224.1  4.44E-06 7.63E-06 3.19E-14 3.19E-14 1.90E-06 6.04E-07 3.82E-07 3.19E-14 3.74E-08 1.51E-06 3.19E-14
                               4.11E-06 2.03E-10
  12    11.00  227.000  217.6  3.92E-06 6.73E-06 2.81E-14 2.81E-14 1.67E-06 5.32E-07 3.37E-07 2.81E-14 3.21E-08 1.28E-06 2.81E-14
                               3.63E-06 1.96E-10
  13    12.00  194.000  217.4  3.34E-06 5.74E-06 2.40E-14 2.40E-14 1.43E-06 4.54E-07 2.88E-07 2.40E-14 2.67E-08 1.05E-06 2.40E-14
                               3.10E-06 1.82E-10
  14    13.00  165.800  217.4  2.77E-06 4.84E-06 2.05E-14 2.05E-14 1.21E-06 3.81E-07 2.44E-07 2.05E-14 1.64E-07 1.16E-06 2.05E-14
                               2.57E-06 9.05E-09
  15    14.00  141.700  217.4  2.30E-06 4.07E-06 1.76E-14 1.76E-14 1.02E-06 3.20E-07 2.06E-07 1.76E-14 2.62E-07 1.22E-06 1.76E-14
                               2.12E-06 1.53E-08
  16    15.00  121.100  217.4  1.91E-06 3.43E-06 1.50E-14 1.50E-14 8.67E-07 2.68E-07 1.74E-07 1.50E-14 3.27E-07 1.23E-06 1.50E-14
                               1.76E-06 1.96E-08
  17    16.00  103.500  217.4  1.58E-06 2.89E-06 1.28E-14 1.28E-14 7.33E-07 2.24E-07 1.47E-07 1.28E-14 3.68E-07 1.22E-06 1.28E-14
                               1.45E-06 2.23E-08
  18    17.00   88.500  217.4  1.23E-06 2.36E-06 1.10E-14 1.10E-14 6.10E-07 1.81E-07 1.23E-07 1.10E-14 1.11E-06 1.56E-06 1.10E-14
                               1.12E-06 9.63E-08
  19    18.00   75.650  217.4  9.52E-07 1.92E-06 9.37E-15 9.37E-15 5.07E-07 1.46E-07 1.02E-07 9.37E-15 1.63E-06 1.78E-06 9.37E-15
                               8.49E-07 1.48E-07
  20    19.00   64.670  217.4  7.28E-07 1.56E-06 8.01E-15 8.01E-15 4.20E-07 1.17E-07 8.44E-08 8.01E-15 1.98E-06 1.90E-06 8.01E-15
                               6.36E-07 1.83E-07
  21    20.00   55.290  217.4  5.49E-07 1.26E-06 6.85E-15 6.85E-15 3.49E-07 9.32E-08 6.99E-08 6.85E-15 2.19E-06 1.95E-06 6.85E-15
                               4.67E-07 2.05E-07
  22    21.00   47.290  218.4  4.01E-07 9.98E-07 5.83E-15 5.83E-15 2.85E-07 7.22E-08 5.69E-08 5.83E-15 2.68E-06 2.05E-06 5.83E-15
                               3.33E-07 2.42E-07
  23    22.00   40.470  219.4  2.84E-07 7.85E-07 4.97E-15 4.97E-15 2.33E-07 5.55E-08 4.63E-08 4.97E-15 2.98E-06 2.08E-06 4.97E-15
                               2.29E-07 2.63E-07
  24    23.00   34.670  220.4  1.93E-07 6.15E-07 4.24E-15 4.24E-15 1.91E-07 4.21E-08 3.76E-08 4.24E-15 3.14E-06 2.06E-06 4.24E-15
                               1.49E-07 2.74E-07
  25    24.00   29.720  221.4  1.23E-07 4.77E-07 3.62E-15 3.62E-15 1.56E-07 3.15E-08 3.05E-08 3.62E-15 3.18E-06 2.00E-06 3.62E-15
                               8.68E-08 2.75E-07
  26    25.00   25.490  222.4  8.42E-08 3.67E-07 3.09E-15 3.09E-15 1.26E-07 2.35E-08 2.45E-08 3.09E-15 3.00E-06 1.79E-06 3.09E-15
                               5.82E-08 2.38E-07
  27    30.00   11.970  227.3  5.54E-09 8.35E-08 1.42E-15 1.42E-15 4.29E-08 4.14E-09 8.00E-09 1.42E-15 1.62E-06 7.24E-07 1.42E-15
                               2.49E-09 7.83E-08
  28    35.00    5.746  237.3  1.29E-10 1.39E-08 6.52E-16 6.52E-16 1.35E-08 4.68E-10 2.38E-09 6.52E-16 3.42E-07 9.58E-08 6.52E-16
                               2.58E-11 7.06E-09
  29    40.00    2.871  251.1  5.70E-13 1.88E-09 3.08E-16 3.08E-16 4.28E-09 3.79E-11 7.14E-10 3.08E-16 1.31E-08 3.07E-09 3.08E-16
                               1.22E-14 6.56E-11
  30    45.00    1.491  265.0  1.39E-14 3.23E-10 1.52E-16 1.52E-16 1.57E-09 4.87E-12 2.45E-10 1.52E-16 2.55E-10 1.32E-10 1.52E-16
                               8.45E-17 5.97E-13
  31    50.00    0.798  271.5  4.72E-16 6.75E-11 7.92E-17 7.92E-17 6.95E-10 7.84E-13 9.90E-11 7.92E-17 3.70E-12 6.04E-12 7.92E-17
                               8.65E-19 4.98E-15
  32    70.00    0.052  220.4  3.25E-21 2.49E-13 6.38E-18 6.38E-18 4.59E-11 1.12E-15 3.74E-12 6.38E-18 4.62E-19 2.05E-16 6.38E-18
                               6.30E-26 5.23E-23
  33   100.00    0.000  195.9  1.37E-30 1.09E-18 4.40E-20 4.40E-20 7.88E-14 5.77E-22 9.38E-16 4.40E-20 3.56E-35 1.47E-31 4.40E-20
                               2.24E-38 0.00E+00


 CASE 3A: GIVEN H1,H2=SPACE,ANGLE



 TANGENT PATH WITH H1 =     70.000 AND ANGLE =    180.000 INTERSECTS THE EARTH

          H2 HAS BEEN RESET TO 0.0 AND LEN TO 0



 SLANT PATH PARAMETERS IN STANDARD FORM

          H1      =     70.000 KM
          H2      =      0.000 KM
          ANGLE   =    180.000 DEG
          PHI     =      0.000 DEG
          HMIN    =      0.000 KM
          LEN     =          0
1CALCULATION OF THE REFRACTED PATH THROUGH THE ATMOSPHERE


  I       ALTITUDE        THETA  DRANGE    RANGE    DBETA     BETA     PHI     DBEND  BENDING    PBAR    TBAR   RHOBAR
      FROM       TO
      (KM)      (KM)      (DEG)    (KM)     (KM)    (DEG)    (DEG)    (DEG)    (DEG)    (DEG)    (MB)    (K)  (GM CM-3)

          H2 TO H1

  1    0.000    1.000    0.000    1.000    1.000    0.000    0.000  180.000    0.000    0.000  955.684  285.74 1.16E-03
  2    1.000    2.000    0.000    1.000    2.000    0.000    0.000  180.000    0.000    0.000  846.699  279.24 1.06E-03
  3    2.000    3.000    0.000    1.000    3.000    0.000    0.000  180.000    0.000    0.000  747.914  272.74 9.54E-04
  4    3.000    4.000    0.000    1.000    4.000    0.000    0.000  180.000    0.000    0.000  658.728  266.24 8.61E-04
  5    4.000    5.000    0.000    1.000    5.000    0.000    0.000  180.000    0.000    0.000  578.391  259.74 7.75E-04
  6    5.000    6.000    0.000    1.000    6.000    0.000    0.000  180.000    0.000    0.000  506.204  253.25 6.95E-04
  7    6.000    7.000    0.000    1.000    7.000    0.000    0.000  180.000    0.000    0.000  441.516  246.75 6.23E-04
  8    7.000    8.000    0.000    1.000    8.000    0.000    0.000  180.000    0.000    0.000  383.677  240.25 5.56E-04
  9    8.000    9.000    0.000    1.000    9.000    0.000    0.000  180.000    0.000    0.000  332.138  233.75 4.94E-04
 10    9.000   10.000    0.000    1.000   10.000    0.000    0.000  180.000    0.000    0.000  286.399  227.30 4.38E-04
 11   10.000   11.000    0.000    1.000   11.000    0.000    0.000  180.000    0.000    0.000  245.907  220.85 3.87E-04
 12   11.000   12.000    0.000    1.000   12.000    0.000    0.000  180.000    0.000    0.000  210.499  217.50 3.36E-04
 13   12.000   13.000    0.000    1.000   13.000    0.000    0.000  180.000    0.000    0.000  179.900  217.45 2.88E-04
 14   13.000   14.000    0.000    1.000   14.000    0.000    0.000  180.000    0.000    0.000  153.750  217.45 2.46E-04
 15   14.000   15.000    0.000    1.000   15.000    0.000    0.000  180.000    0.000    0.000  131.400  217.45 2.10E-04
 16   15.000   16.000    0.000    1.000   16.000    0.000    0.000  180.000    0.000    0.000  112.300  217.45 1.80E-04
 17   16.000   17.000    0.000    1.000   17.000    0.000    0.000  180.000    0.000    0.000   96.000  217.45 1.53E-04
 18   17.000   18.000    0.000    1.000   18.000    0.000    0.000  180.000    0.000    0.000   82.075  217.45 1.31E-04
 19   18.000   19.000    0.000    1.000   19.000    0.000    0.000  180.000    0.000    0.000   70.160  217.45 1.12E-04
 20   19.000   20.000    0.000    1.000   20.000    0.000    0.000  180.000    0.000    0.000   59.980  217.45 9.59E-05
 21   20.000   21.000    0.000    1.000   21.000    0.000    0.000  180.000    0.000    0.000   51.293  217.89 8.18E-05
 22   21.000   22.000    0.000    1.000   22.000    0.000    0.000  180.000    0.000    0.000   43.883  218.84 6.97E-05
 23   22.000   23.000    0.000    1.000   23.000    0.000    0.000  180.000    0.000    0.000   37.572  219.84 5.94E-05
 24   23.000   24.000    0.000    1.000   24.000    0.000    0.000  180.000    0.000    0.000   32.197  220.84 5.07E-05
 25   24.000   25.000    0.000    1.000   25.000    0.000    0.000  180.000    0.000    0.000   27.607  221.84 4.33E-05
 26   25.000   30.000    0.000    5.000   30.000    0.000    0.000  180.000    0.000    0.000   18.754  224.48 2.78E-05
 27   30.000   35.000    0.000    5.000   35.000    0.000    0.000  180.000    0.000    0.000    8.880  231.57 1.28E-05
 28   35.000   40.000    0.000    5.000   40.000    0.000    0.000  180.000    0.000    0.000    4.322  243.27 5.93E-06
 29   40.000   45.000    0.000    5.000   45.000    0.000    0.000  180.000    0.000    0.000    2.187  257.18 2.85E-06
 30   45.000   50.000    0.000    5.000   50.000    0.000    0.000  180.000    0.000    0.000    1.146  267.84 1.44E-06
 31   50.000   70.000    0.000   20.000   70.000    0.000    0.000  180.000    0.000    0.000    0.414  254.83 3.74E-07




1CUMULATIVE ABSORBER AMOUNTS FOR THE PATH FROM H1 TO Z

  J     Z        TBAR     HNO3        O3 UV      CNTMSLF1   CNTMSLF2    CNTMFRN      O2
       (KM)       (K)   (ATM CM)    (ATM CM)    (MOL CM-2)  (MOL CM-2)  (MOL CM-2)(MOL CM-2)

  1   50.000   254.83   0.000E+00   1.004E-03   1.702E+08   1.946E+08   3.495E+13   1.209E+02
  2   45.000   267.84   0.000E+00   3.343E-03   6.814E+08   5.945E+08   1.329E+14   2.375E+02
  3   40.000   257.18   0.000E+00   1.034E-02   2.602E+09   2.665E+09   5.096E+14   4.685E+02
  4   35.000   243.27   0.000E+00   2.777E-02   1.045E+10   1.416E+10   2.097E+15   9.500E+02
  5   30.000   231.57   0.000E+00   6.276E-02   4.458E+10   7.524E+10   9.227E+15   1.990E+03
  6   25.000   224.48   0.000E+00   1.241E-01   1.895E+11   3.631E+11   4.119E+16   4.277E+03
  7   24.000   221.84   0.000E+00   1.404E-01   2.515E+11   4.910E+11   5.543E+16   4.996E+03
  8   23.000   220.84   0.000E+00   1.576E-01   3.324E+11   6.597E+11   7.448E+16   5.842E+03
  9   22.000   219.84   0.000E+00   1.755E-01   4.374E+11   8.818E+11   9.993E+16   6.839E+03
 10   21.000   218.84   0.000E+00   1.934E-01   5.742E+11   1.175E+12   1.340E+17   8.017E+03
 11   20.000   217.89   0.000E+00   2.110E-01   7.551E+11   1.568E+12   1.800E+17   9.409E+03
 12   19.000   217.45   0.000E+00   2.280E-01   9.958E+11   2.093E+12   2.422E+17   1.105E+04
 13   18.000   217.45   0.000E+00   2.436E-01   1.319E+12   2.798E+12   3.265E+17   1.300E+04
 14   17.000   217.45   0.000E+00   2.575E-01   1.761E+12   3.763E+12   4.418E+17   1.530E+04
 15   16.000   217.45   0.000E+00   2.696E-01   2.387E+12   5.129E+12   6.023E+17   1.803E+04
 16   15.000   217.45   0.000E+00   2.800E-01   3.522E+12   7.604E+12   8.545E+17   2.126E+04
 17   14.000   217.45   0.000E+00   2.893E-01   5.834E+12   1.265E+13   1.276E+18   2.512E+04
 18   13.000   217.45   0.000E+00   2.977E-01   1.326E+13   2.884E+13   2.149E+18   2.972E+04
 19   12.000   217.45   0.000E+00   3.054E-01   4.561E+13   9.944E+13   4.284E+18   3.523E+04
 20   11.000   217.50   0.000E+00   3.121E-01   1.958E+14   4.269E+14   9.646E+18   4.185E+04
 21   10.000   220.85   0.000E+00   3.172E-01   9.248E+14   1.949E+15   2.322E+19   4.967E+04
 22    9.000   227.30   0.000E+00   3.210E-01   5.191E+15   1.009E+16   6.006E+19   5.875E+04
 23    8.000   233.75   0.000E+00   3.238E-01   3.380E+16   5.956E+16   1.675E+20   6.928E+04
 24    7.000   240.25   0.000E+00   3.262E-01   1.524E+17   2.432E+17   4.181E+20   8.147E+04
 25    6.000   246.75   0.000E+00   3.284E-01   5.304E+17   7.604E+17   9.186E+20   9.556E+04
 26    5.000   253.25   0.000E+00   3.305E-01   1.668E+18   2.111E+18   1.891E+21   1.118E+05
 27    4.000   259.74   0.000E+00   3.326E-01   4.971E+18   5.438E+18   3.733E+21   1.306E+05
 28    3.000   266.24   0.000E+00   3.348E-01   1.419E+19   1.305E+19   7.155E+21   1.522E+05
 29    2.000   272.74   0.000E+00   3.373E-01   3.842E+19   2.871E+19   1.330E+22   1.771E+05
 30    1.000   279.24   0.000E+00   3.398E-01   9.412E+19   5.464E+19   2.362E+22   2.057E+05
 31    0.000   285.74   0.000E+00   3.423E-01   2.071E+20   8.683E+19   3.980E+22   2.386E+05



1 J     Z       N2 CONT    MOL SCAT       AER 1       AER 2       AER 3       AER 4       CIRRUS
       (KM)

  1   50.000   2.274E-06   5.785E-03   0.000E+00   0.000E+00   0.000E+00   0.000E+00   0.000E+00
  2   45.000   8.187E-06   1.136E-02   0.000E+00   0.000E+00   0.000E+00   0.000E+00   0.000E+00
  3   40.000   3.149E-05   2.240E-02   0.000E+00   0.000E+00   0.000E+00   0.000E+00   0.000E+00
  4   35.000   1.328E-04   4.536E-02   0.000E+00   0.000E+00   0.000E+00   0.000E+00   0.000E+00
  5   30.000   6.025E-04   9.472E-02   0.000E+00   0.000E+00   0.000E+00   0.000E+00   0.000E+00
  6   25.000   2.826E-03   2.021E-01   0.000E+00   0.000E+00   0.000E+00   0.000E+00   0.000E+00
  7   24.000   3.857E-03   2.356E-01   0.000E+00   0.000E+00   0.000E+00   0.000E+00   0.000E+00
  8   23.000   5.273E-03   2.748E-01   0.000E+00   0.000E+00   0.000E+00   0.000E+00   0.000E+00
  9   22.000   7.218E-03   3.208E-01   0.000E+00   0.000E+00   0.000E+00   0.000E+00   0.000E+00
 10   21.000   9.895E-03   3.748E-01   0.000E+00   0.000E+00   0.000E+00   0.000E+00   0.000E+00
 11   20.000   1.358E-02   4.381E-01   0.000E+00   0.000E+00   0.000E+00   0.000E+00   0.000E+00
 12   19.000   1.865E-02   5.123E-01   0.000E+00   0.000E+00   0.000E+00   0.000E+00   0.000E+00
 13   18.000   2.558E-02   5.991E-01   0.000E+00   0.000E+00   0.000E+00   0.000E+00   0.000E+00
 14   17.000   3.507E-02   7.006E-01   0.000E+00   0.000E+00   0.000E+00   0.000E+00   0.000E+00
 15   16.000   4.804E-02   8.194E-01   0.000E+00   0.000E+00   0.000E+00   0.000E+00   0.000E+00
 16   15.000   6.580E-02   9.583E-01   0.000E+00   0.000E+00   0.000E+00   0.000E+00   0.000E+00
 17   14.000   9.011E-02   1.121E+00   0.000E+00   0.000E+00   0.000E+00   0.000E+00   0.000E+00
 18   13.000   1.234E-01   1.311E+00   0.000E+00   0.000E+00   0.000E+00   0.000E+00   0.000E+00
 19   12.000   1.690E-01   1.534E+00   0.000E+00   0.000E+00   0.000E+00   0.000E+00   0.000E+00
 20   11.000   2.313E-01   1.794E+00   0.000E+00   0.000E+00   0.000E+00   0.000E+00   0.000E+00
 21   10.000   3.139E-01   2.094E+00   0.000E+00   0.000E+00   0.000E+00   0.000E+00   0.000E+00
 22    9.000   4.196E-01   2.433E+00   0.000E+00   0.000E+00   0.000E+00   0.000E+00   0.000E+00
 23    8.000   5.541E-01   2.815E+00   0.000E+00   0.000E+00   0.000E+00   0.000E+00   0.000E+00
 24    7.000   7.240E-01   3.245E+00   0.000E+00   0.000E+00   0.000E+00   0.000E+00   0.000E+00
 25    6.000   9.373E-01   3.727E+00   0.000E+00   0.000E+00   0.000E+00   0.000E+00   0.000E+00
 26    5.000   1.203E+00   4.265E+00   0.000E+00   0.000E+00   0.000E+00   0.000E+00   0.000E+00
 27    4.000   1.534E+00   4.865E+00   0.000E+00   0.000E+00   0.000E+00   0.000E+00   0.000E+00
 28    3.000   1.942E+00   5.531E+00   0.000E+00   0.000E+00   0.000E+00   0.000E+00   0.000E+00
 29    2.000   2.443E+00   6.270E+00   0.000E+00   0.000E+00   0.000E+00   0.000E+00   0.000E+00
 30    1.000   3.055E+00   7.086E+00   0.000E+00   0.000E+00   0.000E+00   0.000E+00   0.000E+00
 31    0.000   3.801E+00   7.987E+00   0.000E+00   0.000E+00   0.000E+00   0.000E+00   0.000E+00



1  J    Z       H2O       O3        CO2       CO        CH4       N2O       O2        NH3       NO        NO2       SO2
      (KM)    (                                                      ATM CM                                             )

   1   50.00  2.68E-03  1.00E-03  4.63E-01  0.00E+00  1.10E-04  0.00E+00  1.21E+02  0.00E+00  0.00E+00  0.00E+00  0.00E+00
   2   45.00  5.59E-03  3.34E-03  9.09E-01  0.00E+00  2.70E-04  0.00E+00  2.37E+02  0.00E+00  0.00E+00  0.00E+00  0.00E+00
   3   40.00  1.12E-02  1.03E-02  1.79E+00  0.00E+00  7.86E-04  0.00E+00  4.68E+02  0.00E+00  0.00E+00  0.00E+00  0.00E+00
   4   35.00  2.26E-02  2.78E-02  3.63E+00  0.00E+00  2.31E-03  0.00E+00  9.47E+02  0.00E+00  0.00E+00  0.00E+00  0.00E+00
   5   30.00  4.63E-02  6.28E-02  7.57E+00  0.00E+00  6.44E-03  0.00E+00  1.98E+03  0.00E+00  0.00E+00  0.00E+00  0.00E+00
   6   25.00  9.51E-02  1.24E-01  1.62E+01  0.00E+00  1.71E-02  0.00E+00  4.22E+03  0.00E+00  0.00E+00  0.00E+00  0.00E+00
   7   24.00  1.10E-01  1.40E-01  1.88E+01  0.00E+00  2.07E-02  0.00E+00  4.92E+03  0.00E+00  0.00E+00  0.00E+00  0.00E+00
   8   23.00  1.26E-01  1.58E-01  2.20E+01  0.00E+00  2.52E-02  0.00E+00  5.74E+03  0.00E+00  0.00E+00  0.00E+00  0.00E+00
   9   22.00  1.45E-01  1.75E-01  2.56E+01  0.00E+00  3.09E-02  0.00E+00  6.70E+03  0.00E+00  0.00E+00  0.00E+00  0.00E+00
  10   21.00  1.67E-01  1.93E-01  3.00E+01  0.00E+00  3.80E-02  0.00E+00  7.83E+03  0.00E+00  0.00E+00  0.00E+00  0.00E+00
  11   20.00  1.92E-01  2.11E-01  3.50E+01  0.00E+00  4.68E-02  0.00E+00  9.15E+03  0.00E+00  0.00E+00  0.00E+00  0.00E+00
  12   19.00  2.21E-01  2.28E-01  4.10E+01  0.00E+00  5.76E-02  0.00E+00  1.07E+04  0.00E+00  0.00E+00  0.00E+00  0.00E+00
  13   18.00  2.54E-01  2.44E-01  4.79E+01  0.00E+00  7.06E-02  0.00E+00  1.25E+04  0.00E+00  0.00E+00  0.00E+00  0.00E+00
  14   17.00  2.93E-01  2.57E-01  5.60E+01  0.00E+00  8.62E-02  0.00E+00  1.46E+04  0.00E+00  0.00E+00  0.00E+00  0.00E+00
  15   16.00  3.39E-01  2.70E-01  6.55E+01  0.00E+00  1.05E-01  0.00E+00  1.71E+04  0.00E+00  0.00E+00  0.00E+00  0.00E+00
  16   15.00  4.01E-01  2.80E-01  7.66E+01  0.00E+00  1.27E-01  0.00E+00  2.00E+04  0.00E+00  0.00E+00  0.00E+00  0.00E+00
  17   14.00  4.90E-01  2.89E-01  8.96E+01  0.00E+00  1.53E-01  0.00E+00  2.34E+04  0.00E+00  0.00E+00  0.00E+00  0.00E+00
  18   13.00  6.46E-01  2.98E-01  1.05E+02  0.00E+00  1.84E-01  0.00E+00  2.74E+04  0.00E+00  0.00E+00  0.00E+00  0.00E+00
  19   12.00  9.72E-01  3.05E-01  1.23E+02  0.00E+00  2.21E-01  0.00E+00  3.20E+04  0.00E+00  0.00E+00  0.00E+00  0.00E+00
  20   11.00  1.67E+00  3.12E-01  1.43E+02  0.00E+00  2.64E-01  0.00E+00  3.75E+04  0.00E+00  0.00E+00  0.00E+00  0.00E+00
  21   10.00  3.22E+00  3.17E-01  1.67E+02  0.00E+00  3.15E-01  0.00E+00  4.37E+04  0.00E+00  0.00E+00  0.00E+00  0.00E+00
  22    9.00  6.91E+00  3.21E-01  1.94E+02  0.00E+00  3.72E-01  0.00E+00  5.08E+04  0.00E+00  0.00E+00  0.00E+00  0.00E+00
  23    8.00  1.65E+01  3.24E-01  2.25E+02  0.00E+00  4.37E-01  0.00E+00  5.88E+04  0.00E+00  0.00E+00  0.00E+00  0.00E+00
  24    7.00  3.64E+01  3.26E-01  2.59E+02  0.00E+00  5.10E-01  0.00E+00  6.78E+04  0.00E+00  0.00E+00  0.00E+00  0.00E+00
  25    6.00  7.19E+01  3.28E-01  2.98E+02  0.00E+00  5.92E-01  0.00E+00  7.78E+04  0.00E+00  0.00E+00  0.00E+00  0.00E+00
  26    5.00  1.34E+02  3.30E-01  3.41E+02  0.00E+00  6.83E-01  0.00E+00  8.91E+04  0.00E+00  0.00E+00  0.00E+00  0.00E+00
  27    4.00  2.39E+02  3.33E-01  3.89E+02  0.00E+00  7.85E-01  0.00E+00  1.02E+05  0.00E+00  0.00E+00  0.00E+00  0.00E+00
  28    3.00  4.15E+02  3.35E-01  4.42E+02  0.00E+00  8.98E-01  0.00E+00  1.16E+05  0.00E+00  0.00E+00  0.00E+00  0.00E+00
  29    2.00  7.01E+02  3.37E-01  5.01E+02  0.00E+00  1.02E+00  0.00E+00  1.31E+05  0.00E+00  0.00E+00  0.00E+00  0.00E+00
  30    1.00  1.14E+03  3.40E-01  5.67E+02  0.00E+00  1.16E+00  0.00E+00  1.48E+05  0.00E+00  0.00E+00  0.00E+00  0.00E+00
  31    0.00  1.76E+03  3.42E-01  6.39E+02  0.00E+00  1.32E+00  0.00E+00  1.67E+05  0.00E+00  0.00E+00  0.00E+00  0.00E+00



1  J    Z      CFC-11    CFC-12    CFC-13    CFC-14    CFC-22    CFC-113   CFC-114   CFC-115   CLONO2     HNO4     CHCL2F 
                CCL4      N2O5  
      (KM)    (                                                   ATM CM                                                )

   1   50.00  7.95E-16  2.40E-10  5.78E-16  5.78E-16  4.78E-09  2.39E-12  5.81E-10  5.78E-16  4.65E-12  1.17E-11  5.78E-16
              1.05E-18  5.42E-15
   2   45.00  2.07E-14  1.06E-09  1.14E-15  1.14E-15  1.02E-08  1.36E-11  1.39E-09  1.14E-15  3.01E-10  2.16E-10  1.14E-15
              9.23E-17  6.24E-13
   3   40.00  7.69E-13  5.47E-09  2.24E-15  2.24E-15  2.37E-08  9.41E-11  3.58E-09  2.24E-15  1.66E-08  4.89E-09  2.24E-15
              1.23E-14  6.98E-11
   4   35.00  1.20E-10  3.55E-08  4.53E-15  4.53E-15  6.38E-08  9.49E-10  1.05E-08  4.53E-15  5.21E-07  1.40E-07  4.53E-15
              1.69E-11  7.54E-09
   5   30.00  7.32E-09  2.30E-07  9.47E-15  9.47E-15  1.91E-07  9.36E-09  3.37E-08  9.47E-15  4.62E-06  1.69E-06  9.47E-15
              2.71E-09  1.56E-07
   6   25.00  1.52E-07  1.19E-06  2.02E-14  2.02E-14  5.77E-07  6.51E-08  1.07E-07  2.02E-14  1.58E-05  7.59E-06  2.02E-14
              9.11E-08  8.74E-07
   7   24.00  2.54E-07  1.61E-06  2.35E-14  2.35E-14  7.17E-07  9.24E-08  1.35E-07  2.35E-14  1.89E-05  9.48E-06  2.35E-14
              1.63E-07  1.13E-06
   8   23.00  4.10E-07  2.15E-06  2.75E-14  2.75E-14  8.90E-07  1.29E-07  1.69E-07  2.75E-14  2.21E-05  1.15E-05  2.75E-14
              2.78E-07  1.40E-06
   9   22.00  6.45E-07  2.85E-06  3.21E-14  3.21E-14  1.10E-06  1.77E-07  2.11E-07  3.21E-14  2.51E-05  1.36E-05  3.21E-14
              4.64E-07  1.67E-06
  10   21.00  9.84E-07  3.73E-06  3.75E-14  3.75E-14  1.36E-06  2.41E-07  2.62E-07  3.75E-14  2.80E-05  1.56E-05  3.75E-14
              7.42E-07  1.93E-06
  11   20.00  1.46E-06  4.86E-06  4.38E-14  4.38E-14  1.68E-06  3.23E-07  3.25E-07  4.38E-14  3.04E-05  1.76E-05  4.38E-14
              1.14E-06  2.15E-06
  12   19.00  2.09E-06  6.26E-06  5.12E-14  5.12E-14  2.06E-06  4.28E-07  4.02E-07  5.12E-14  3.25E-05  1.96E-05  5.12E-14
              1.69E-06  2.34E-06
  13   18.00  2.92E-06  7.99E-06  5.99E-14  5.99E-14  2.52E-06  5.58E-07  4.95E-07  5.99E-14  3.43E-05  2.14E-05  5.99E-14
              2.42E-06  2.51E-06
  14   17.00  4.01E-06  1.01E-05  7.00E-14  7.00E-14  3.08E-06  7.21E-07  6.07E-07  7.00E-14  3.57E-05  2.31E-05  7.00E-14
              3.40E-06  2.63E-06
  15   16.00  5.41E-06  1.27E-05  8.19E-14  8.19E-14  3.75E-06  9.23E-07  7.41E-07  8.19E-14  3.64E-05  2.45E-05  8.19E-14
              4.67E-06  2.69E-06
  16   15.00  7.14E-06  1.59E-05  9.58E-14  9.58E-14  4.55E-06  1.17E-06  9.02E-07  9.58E-14  3.68E-05  2.57E-05  9.58E-14
              6.27E-06  2.71E-06
  17   14.00  9.24E-06  1.96E-05  1.12E-13  1.12E-13  5.49E-06  1.46E-06  1.09E-06  1.12E-13  3.71E-05  2.69E-05  1.12E-13
              8.21E-06  2.73E-06
  18   13.00  1.18E-05  2.41E-05  1.31E-13  1.31E-13  6.60E-06  1.81E-06  1.32E-06  1.31E-13  3.73E-05  2.81E-05  1.31E-13
              1.05E-05  2.74E-06
  19   12.00  1.48E-05  2.93E-05  1.53E-13  1.53E-13  7.92E-06  2.23E-06  1.58E-06  1.53E-13  3.74E-05  2.92E-05  1.53E-13
              1.34E-05  2.75E-06
  20   11.00  1.84E-05  3.56E-05  1.79E-13  1.79E-13  9.47E-06  2.72E-06  1.89E-06  1.79E-13  3.74E-05  3.04E-05  1.79E-13
              1.67E-05  2.75E-06
  21   10.00  2.26E-05  4.27E-05  2.09E-13  2.09E-13  1.13E-05  3.29E-06  2.25E-06  2.09E-13  3.74E-05  3.18E-05  2.09E-13
              2.06E-05  2.75E-06
  22    9.00  2.73E-05  5.09E-05  2.43E-13  2.43E-13  1.33E-05  3.93E-06  2.66E-06  2.43E-13  3.75E-05  3.34E-05  2.43E-13
              2.50E-05  2.75E-06
  23    8.00  3.27E-05  6.00E-05  2.81E-13  2.81E-13  1.56E-05  4.66E-06  3.12E-06  2.81E-13  3.75E-05  3.53E-05  2.81E-13
              2.99E-05  2.75E-06
  24    7.00  3.87E-05  7.03E-05  3.24E-13  3.24E-13  1.81E-05  5.47E-06  3.63E-06  3.24E-13  3.76E-05  3.73E-05  3.24E-13
              3.54E-05  2.75E-06
  25    6.00  4.54E-05  8.19E-05  3.72E-13  3.72E-13  2.10E-05  6.39E-06  4.21E-06  3.72E-13  3.77E-05  3.89E-05  3.72E-13
              4.17E-05  2.75E-06
  26    5.00  5.30E-05  9.48E-05  4.26E-13  4.26E-13  2.42E-05  7.41E-06  4.86E-06  4.26E-13  3.78E-05  4.02E-05  4.26E-13
              4.86E-05  2.75E-06
  27    4.00  6.14E-05  1.09E-04  4.86E-13  4.86E-13  2.78E-05  8.55E-06  5.58E-06  4.86E-13  3.80E-05  4.09E-05  4.86E-13
              5.64E-05  2.75E-06
  28    3.00  7.07E-05  1.25E-04  5.53E-13  5.53E-13  3.18E-05  9.81E-06  6.38E-06  5.53E-13  3.82E-05  4.13E-05  5.53E-13
              6.51E-05  2.75E-06
  29    2.00  8.10E-05  1.43E-04  6.27E-13  6.27E-13  3.62E-05  1.12E-05  7.26E-06  6.27E-13  3.85E-05  4.17E-05  6.27E-13
              7.47E-05  2.75E-06
  30    1.00  9.24E-05  1.62E-04  7.08E-13  7.08E-13  4.11E-05  1.28E-05  8.24E-06  7.08E-13  3.89E-05  4.19E-05  7.08E-13
              8.53E-05  2.75E-06
  31    0.00  1.05E-04  1.84E-04  7.98E-13  7.98E-13  4.65E-05  1.45E-05  9.32E-06  7.98E-13  3.94E-05  4.20E-05  7.98E-13
              9.70E-05  2.75E-06


0SUMMARY OF THE GEOMETRY CALCULATION

          H1      =     70.000 KM
          H2      =      0.000 KM
          ANGLE   =    180.000 DEG
          RANGE   =     70.000 KM
          BETA    =      0.000 DEG
          PHI     =      0.000 DEG
          HMIN    =      0.000 KM
          BENDING =      0.000 DEG
          LEN     =          0




1EQUIVALENT SEA LEVEL TOTAL ABSORBER AMOUNTS

                 HNO3      O3 UV       CNTMSLF1    CNTMSLF2   CNTMFRN
               (ATM CM)   (ATM CM)     (MOL CM-2)  (MOL CM-2)  (MOL CM-2)  (MOL CM-2)

             0.000E+00   3.423E-01   2.071E+20   8.683E+19   3.980E+22


              N2 CONT    MOL SCAT       AER 1       AER 2       AER 3       AER 4     CIRRUS      MEAN RH
                                                                                                  (PRCNT)

             3.801E+00   7.987E+00   0.000E+00   0.000E+00   0.000E+00   0.000E+00   0.000E+00        0.00


                 H2O        O3          CO2         CO          CH4         N2O          O2
               (                                        ATM CM                            )

             1.756E+03   3.423E-01   6.385E+02   0.000E+00   1.315E+00   0.000E+00   1.668E+05

                 NH3        NO          NO2         SO2
                 (               ATM CM               )

             0.000E+00   0.000E+00   0.000E+00   0.000E+00

             CFC-11      CFC-12      CFC-13      CFC-14      CFC-22      CFC-113     CFC-114
                 (                                      ATM CM                            )

             1.050E-04   1.841E-04   7.981E-13   7.981E-13   4.649E-05   1.447E-05   9.321E-06

             CFC-115     CLONO2       HNO4       CHCL2F       CCL4        N2O5  
                 (                                      ATM CM                            )

             7.981E-13   3.942E-05   4.203E-05   7.981E-13   9.699E-05   2.747E-06
  iv           -5
  iv            0
1                                             RADIANCE(WATTS/CM2-STER-XXX)
0  FREQ   WAVLEN    PATH THERMAL      SURFACE EMISSION    SURFACE REFLECTED     TOTAL RADIANCE   INTEGRAL    TOTAL
  (CM-1) (MICRN)    (CM-1)   (MICRN)    (CM-1)   (MICRN)    (CM-1)   (MICRN)    (CM-1)   (MICRN)    (CM-1)   TRANS

      2. 4999.998  6.86E-10  2.74E-13  4.81E-10  1.92E-13  0.00E+00  0.00E+00  1.17E-09  4.67E-13  1.17E-09  0.40073
      4. 2500.000  2.35E-09  3.76E-12  1.52E-09  2.42E-12  0.00E+00  0.00E+00  3.86E-09  6.18E-12  8.90E-09  0.38552
      6. 1666.666  6.20E-09  2.23E-11  2.08E-09  7.49E-12  0.00E+00  0.00E+00  8.29E-09  2.98E-11  2.55E-08  0.27189
      8. 1250.000  1.19E-08  7.65E-11  2.48E-09  1.58E-11  0.00E+00  0.00E+00  1.44E-08  9.23E-11  5.43E-08  0.17507
     10. 1000.000  2.03E-08  2.03E-10  1.44E-09  1.44E-11  0.00E+00  0.00E+00  2.17E-08  2.17E-10  9.78E-08  0.07703
     12.  833.333  2.95E-08  4.25E-10  2.21E-10  3.19E-12  0.00E+00  0.00E+00  2.97E-08  4.28E-10  1.57E-07  0.00907
     14.  714.286  3.90E-08  7.64E-10  4.58E-12  8.98E-14  0.00E+00  0.00E+00  3.90E-08  7.64E-10  2.35E-07  0.00013
     16.  625.000  4.94E-08  1.27E-09  1.33E-13  3.42E-15  0.00E+00  0.00E+00  4.94E-08  1.27E-09  3.34E-07  0.00000
     18.  555.555  5.96E-08  1.93E-09  2.61E-14  8.47E-16  0.00E+00  0.00E+00  5.96E-08  1.93E-09  4.53E-07  0.00000
     20.  500.000  7.43E-08  2.97E-09  2.61E-14  1.04E-15  0.00E+00  0.00E+00  7.43E-08  2.97E-09  6.02E-07  0.00000
     22.  454.545  9.24E-08  4.47E-09  2.96E-17  1.43E-18  0.00E+00  0.00E+00  9.24E-08  4.47E-09  7.87E-07  0.00000
     24.  416.667  1.06E-07  6.09E-09  2.21E-17  1.27E-18  0.00E+00  0.00E+00  1.06E-07  6.09E-09  9.98E-07  0.00000
     26.  384.615  1.22E-07  8.25E-09  1.08E-17  7.30E-19  0.00E+00  0.00E+00  1.22E-07  8.25E-09  1.24E-06  0.00000
     28.  357.143  1.46E-07  1.14E-08  5.14E-19  4.03E-20  0.00E+00  0.00E+00  1.46E-07  1.14E-08  1.53E-06  0.00000
     30.  333.333  1.65E-07  1.48E-08  2.92E-19  2.63E-20  0.00E+00  0.00E+00  1.65E-07  1.48E-08  1.86E-06  0.00000
     32.  312.500  1.79E-07  1.84E-08  4.53E-25  4.64E-26  0.00E+00  0.00E+00  1.79E-07  1.84E-08  2.22E-06  0.00000
     34.  294.118  1.99E-07  2.30E-08  7.43E-34  8.58E-35  0.00E+00  0.00E+00  1.99E-07  2.30E-08  2.62E-06  0.00000
     36.  277.778  2.16E-07  2.80E-08  0.00E+00  0.00E+00  0.00E+00  0.00E+00  2.16E-07  2.80E-08  3.05E-06  0.00000
     38.  263.158  2.33E-07  3.37E-08  0.00E+00  0.00E+00  0.00E+00  0.00E+00  2.33E-07  3.37E-08  3.52E-06  0.00000
     40.  250.000  2.60E-07  4.16E-08  0.00E+00  0.00E+00  0.00E+00  0.00E+00  2.60E-07  4.16E-08  4.04E-06  0.00000
     42.  238.095  2.95E-07  5.21E-08  0.00E+00  0.00E+00  0.00E+00  0.00E+00  2.95E-07  5.21E-08  4.63E-06  0.00000
     44.  227.273  3.28E-07  6.35E-08  0.00E+00  0.00E+00  0.00E+00  0.00E+00  3.28E-07  6.35E-08  5.29E-06  0.00000
     46.  217.391  3.50E-07  7.41E-08  6.24E-40  1.32E-40  0.00E+00  0.00E+00  3.50E-07  7.41E-08  5.99E-06  0.00000
     48.  208.333  3.75E-07  8.65E-08  6.24E-40  1.44E-40  0.00E+00  0.00E+00  3.75E-07  8.65E-08  6.74E-06  0.00000
     50.  200.000  4.12E-07  1.03E-07  0.00E+00  0.00E+00  0.00E+00  0.00E+00  4.12E-07  1.03E-07  7.56E-06  0.00000
     52.  192.308  4.35E-07  1.18E-07  0.00E+00  0.00E+00  0.00E+00  0.00E+00  4.35E-07  1.18E-07  8.43E-06  0.00000
     54.  185.185  4.50E-07  1.31E-07  0.00E+00  0.00E+00  0.00E+00  0.00E+00  4.50E-07  1.31E-07  9.33E-06  0.00000
     56.  178.571  4.74E-07  1.49E-07  0.00E+00  0.00E+00  0.00E+00  0.00E+00  4.74E-07  1.49E-07  1.03E-05  0.00000
     58.  172.414  5.07E-07  1.71E-07  0.00E+00  0.00E+00  0.00E+00  0.00E+00  5.07E-07  1.71E-07  1.13E-05  0.00000
     60.  166.667  5.48E-07  1.97E-07  0.00E+00  0.00E+00  0.00E+00  0.00E+00  5.48E-07  1.97E-07  1.24E-05  0.00000
     62.  161.290  5.82E-07  2.24E-07  0.00E+00  0.00E+00  0.00E+00  0.00E+00  5.82E-07  2.24E-07  1.36E-05  0.00000
     64.  156.250  6.17E-07  2.53E-07  0.00E+00  0.00E+00  0.00E+00  0.00E+00  6.17E-07  2.53E-07  1.48E-05  0.00000
     66.  151.515  6.64E-07  2.89E-07  0.00E+00  0.00E+00  0.00E+00  0.00E+00  6.64E-07  2.89E-07  1.61E-05  0.00000
     68.  147.059  6.92E-07  3.20E-07  0.00E+00  0.00E+00  0.00E+00  0.00E+00  6.92E-07  3.20E-07  1.75E-05  0.00000
     70.  142.857  7.24E-07  3.55E-07  0.00E+00  0.00E+00  0.00E+00  0.00E+00  7.24E-07  3.55E-07  1.89E-05  0.00000
     72.  138.889  7.49E-07  3.88E-07  0.00E+00  0.00E+00  0.00E+00  0.00E+00  7.49E-07  3.88E-07  2.04E-05  0.00000
     74.  135.135  7.77E-07  4.25E-07  0.00E+00  0.00E+00  0.00E+00  0.00E+00  7.77E-07  4.25E-07  2.20E-05  0.00000
     76.  131.579  8.22E-07  4.75E-07  0.00E+00  0.00E+00  0.00E+00  0.00E+00  8.22E-07  4.75E-07  2.36E-05  0.00000
     78.  128.205  8.60E-07  5.23E-07  0.00E+00  0.00E+00  0.00E+00  0.00E+00  8.60E-07  5.23E-07  2.54E-05  0.00000
     80.  125.000  8.95E-07  5.73E-07  0.00E+00  0.00E+00  0.00E+00  0.00E+00  8.95E-07  5.73E-07  2.72E-05  0.00000
     82.  121.951  9.42E-07  6.34E-07  0.00E+00  0.00E+00  0.00E+00  0.00E+00  9.42E-07  6.34E-07  2.90E-05  0.00000
     84.  119.048  1.00E-06  7.06E-07  0.00E+00  0.00E+00  0.00E+00  0.00E+00  1.00E-06  7.06E-07  3.10E-05  0.00000
     86.  116.279  1.03E-06  7.63E-07  0.00E+00  0.00E+00  0.00E+00  0.00E+00  1.03E-06  7.63E-07  3.31E-05  0.00000
     88.  113.636  1.05E-06  8.12E-07  0.00E+00  0.00E+00  0.00E+00  0.00E+00  1.05E-06  8.12E-07  3.52E-05  0.00000
     90.  111.111  1.09E-06  8.81E-07  0.00E+00  0.00E+00  0.00E+00  0.00E+00  1.09E-06  8.81E-07  3.74E-05  0.00000
     92.  108.696  1.13E-06  9.54E-07  0.00E+00  0.00E+00  0.00E+00  0.00E+00  1.13E-06  9.54E-07  3.96E-05  0.00000
     94.  106.383  1.18E-06  1.04E-06  0.00E+00  0.00E+00  0.00E+00  0.00E+00  1.18E-06  1.04E-06  4.20E-05  0.00000
     96.  104.167  1.23E-06  1.13E-06  0.00E+00  0.00E+00  0.00E+00  0.00E+00  1.23E-06  1.13E-06  4.44E-05  0.00000
     98.  102.041  1.26E-06  1.21E-06  0.00E+00  0.00E+00  0.00E+00  0.00E+00  1.26E-06  1.21E-06  4.70E-05  0.00000
    100.  100.000  1.29E-06  1.29E-06  0.00E+00  0.00E+00  0.00E+00  0.00E+00  1.29E-06  1.29E-06  4.95E-05  0.00000
  iv          105
1                                             RADIANCE(WATTS/CM2-STER-XXX)
0  FREQ   WAVLEN    PATH THERMAL      SURFACE EMISSION    SURFACE REFLECTED     TOTAL RADIANCE   INTEGRAL    TOTAL
  (CM-1) (MICRN)    (CM-1)   (MICRN)    (CM-1)   (MICRN)    (CM-1)   (MICRN)    (CM-1)   (MICRN)    (CM-1)   TRANS

    102.   98.039  1.34E-06  1.39E-06  0.00E+00  0.00E+00  0.00E+00  0.00E+00  1.34E-06  1.39E-06  5.22E-05  0.00000
    104.   96.154  1.38E-06  1.50E-06  0.00E+00  0.00E+00  0.00E+00  0.00E+00  1.38E-06  1.50E-06  5.50E-05  0.00000
    106.   94.340  1.43E-06  1.60E-06  0.00E+00  0.00E+00  0.00E+00  0.00E+00  1.43E-06  1.60E-06  5.78E-05  0.00000
    108.   92.593  1.50E-06  1.75E-06  0.00E+00  0.00E+00  0.00E+00  0.00E+00  1.50E-06  1.75E-06  6.08E-05  0.00000
    110.   90.909  1.54E-06  1.87E-06  0.00E+00  0.00E+00  0.00E+00  0.00E+00  1.54E-06  1.87E-06  6.39E-05  0.00000
    112.   89.286  1.59E-06  1.99E-06  0.00E+00  0.00E+00  0.00E+00  0.00E+00  1.59E-06  1.99E-06  6.71E-05  0.00000
    114.   87.719  1.69E-06  2.20E-06  0.00E+00  0.00E+00  0.00E+00  0.00E+00  1.69E-06  2.20E-06  7.05E-05  0.00000
    116.   86.207  1.73E-06  2.33E-06  0.00E+00  0.00E+00  0.00E+00  0.00E+00  1.73E-06  2.33E-06  7.39E-05  0.00000
    118.   84.746  1.73E-06  2.41E-06  0.00E+00  0.00E+00  0.00E+00  0.00E+00  1.73E-06  2.41E-06  7.74E-05  0.00000
    120.   83.333  1.74E-06  2.51E-06  0.00E+00  0.00E+00  0.00E+00  0.00E+00  1.74E-06  2.51E-06  8.09E-05  0.00000
    122.   81.967  1.78E-06  2.65E-06  0.00E+00  0.00E+00  0.00E+00  0.00E+00  1.78E-06  2.65E-06  8.45E-05  0.00000
    124.   80.645  1.85E-06  2.84E-06  0.00E+00  0.00E+00  0.00E+00  0.00E+00  1.85E-06  2.84E-06  8.82E-05  0.00000
    126.   79.365  1.88E-06  2.98E-06  0.00E+00  0.00E+00  0.00E+00  0.00E+00  1.88E-06  2.98E-06  9.19E-05  0.00000
    128.   78.125  1.93E-06  3.17E-06  0.00E+00  0.00E+00  0.00E+00  0.00E+00  1.93E-06  3.17E-06  9.58E-05  0.00000
    130.   76.923  2.00E-06  3.38E-06  0.00E+00  0.00E+00  0.00E+00  0.00E+00  2.00E-06  3.38E-06  9.98E-05  0.00000
    132.   75.758  2.02E-06  3.51E-06  0.00E+00  0.00E+00  0.00E+00  0.00E+00  2.02E-06  3.51E-06  1.04E-04  0.00000
    134.   74.627  2.08E-06  3.74E-06  0.00E+00  0.00E+00  0.00E+00  0.00E+00  2.08E-06  3.74E-06  1.08E-04  0.00000
    136.   73.529  2.17E-06  4.01E-06  0.00E+00  0.00E+00  0.00E+00  0.00E+00  2.17E-06  4.01E-06  1.12E-04  0.00000
    138.   72.464  2.17E-06  4.13E-06  0.00E+00  0.00E+00  0.00E+00  0.00E+00  2.17E-06  4.13E-06  1.17E-04  0.00000
    140.   71.429  2.19E-06  4.30E-06  0.00E+00  0.00E+00  0.00E+00  0.00E+00  2.19E-06  4.30E-06  1.21E-04  0.00000
    142.   70.423  2.31E-06  4.65E-06  0.00E+00  0.00E+00  0.00E+00  0.00E+00  2.31E-06  4.65E-06  1.26E-04  0.00000
    144.   69.444  2.42E-06  5.01E-06  0.00E+00  0.00E+00  0.00E+00  0.00E+00  2.42E-06  5.01E-06  1.30E-04  0.00000
    146.   68.493  2.44E-06  5.20E-06  0.00E+00  0.00E+00  0.00E+00  0.00E+00  2.44E-06  5.20E-06  1.35E-04  0.00000
    148.   67.568  2.41E-06  5.28E-06  0.00E+00  0.00E+00  0.00E+00  0.00E+00  2.41E-06  5.28E-06  1.40E-04  0.00000
    150.   66.667  2.41E-06  5.42E-06  0.00E+00  0.00E+00  0.00E+00  0.00E+00  2.41E-06  5.42E-06  1.45E-04  0.00000
    152.   65.789  2.45E-06  5.67E-06  0.00E+00  0.00E+00  0.00E+00  0.00E+00  2.45E-06  5.67E-06  1.50E-04  0.00000
    154.   64.935  2.53E-06  6.00E-06  0.00E+00  0.00E+00  0.00E+00  0.00E+00  2.53E-06  6.00E-06  1.55E-04  0.00000
    156.   64.103  2.60E-06  6.32E-06  0.00E+00  0.00E+00  0.00E+00  0.00E+00  2.60E-06  6.32E-06  1.60E-04  0.00000
    158.   63.291  2.65E-06  6.61E-06  0.00E+00  0.00E+00  0.00E+00  0.00E+00  2.65E-06  6.61E-06  1.65E-04  0.00000
    160.   62.500  2.77E-06  7.09E-06  0.00E+00  0.00E+00  0.00E+00  0.00E+00  2.77E-06  7.09E-06  1.71E-04  0.00000
    162.   61.728  2.87E-06  7.53E-06  0.00E+00  0.00E+00  0.00E+00  0.00E+00  2.87E-06  7.53E-06  1.77E-04  0.00000
    164.   60.976  2.93E-06  7.87E-06  0.00E+00  0.00E+00  0.00E+00  0.00E+00  2.93E-06  7.87E-06  1.83E-04  0.00000
    166.   60.241  2.89E-06  7.97E-06  0.00E+00  0.00E+00  0.00E+00  0.00E+00  2.89E-06  7.97E-06  1.88E-04  0.00000
    168.   59.524  2.88E-06  8.12E-06  0.00E+00  0.00E+00  0.00E+00  0.00E+00  2.88E-06  8.12E-06  1.94E-04  0.00000
    170.   58.824  2.89E-06  8.34E-06  0.00E+00  0.00E+00  0.00E+00  0.00E+00  2.89E-06  8.34E-06  2.00E-04  0.00000
    172.   58.140  2.94E-06  8.68E-06  0.00E+00  0.00E+00  0.00E+00  0.00E+00  2.94E-06  8.68E-06  2.06E-04  0.00000
    174.   57.471  3.00E-06  9.09E-06  0.00E+00  0.00E+00  0.00E+00  0.00E+00  3.00E-06  9.09E-06  2.12E-04  0.00000
    176.   56.818  3.04E-06  9.41E-06  0.00E+00  0.00E+00  0.00E+00  0.00E+00  3.04E-06  9.41E-06  2.18E-04  0.00000
    178.   56.180  3.09E-06  9.78E-06  0.00E+00  0.00E+00  0.00E+00  0.00E+00  3.09E-06  9.78E-06  2.24E-04  0.00000
    180.   55.556  3.20E-06  1.04E-05  0.00E+00  0.00E+00  0.00E+00  0.00E+00  3.20E-06  1.04E-05  2.30E-04  0.00000
    182.   54.945  3.27E-06  1.08E-05  0.00E+00  0.00E+00  0.00E+00  0.00E+00  3.27E-06  1.08E-05  2.37E-04  0.00000
    184.   54.348  3.41E-06  1.15E-05  0.00E+00  0.00E+00  0.00E+00  0.00E+00  3.41E-06  1.15E-05  2.44E-04  0.00000
    186.   53.763  3.45E-06  1.20E-05  0.00E+00  0.00E+00  0.00E+00  0.00E+00  3.45E-06  1.20E-05  2.51E-04  0.00000
    188.   53.191  3.39E-06  1.20E-05  0.00E+00  0.00E+00  0.00E+00  0.00E+00  3.39E-06  1.20E-05  2.57E-04  0.00000
    190.   52.632  3.53E-06  1.27E-05  0.00E+00  0.00E+00  0.00E+00  0.00E+00  3.53E-06  1.27E-05  2.65E-04  0.00000
    192.   52.083  3.60E-06  1.33E-05  0.00E+00  0.00E+00  0.00E+00  0.00E+00  3.60E-06  1.33E-05  2.72E-04  0.00000
    194.   51.546  3.57E-06  1.34E-05  0.00E+00  0.00E+00  0.00E+00  0.00E+00  3.57E-06  1.34E-05  2.79E-04  0.00000
    196.   51.020  3.63E-06  1.39E-05  0.00E+00  0.00E+00  0.00E+00  0.00E+00  3.63E-06  1.39E-05  2.86E-04  0.00000
    198.   50.505  3.69E-06  1.45E-05  0.00E+00  0.00E+00  0.00E+00  0.00E+00  3.69E-06  1.45E-05  2.94E-04  0.00000
    200.   50.000  3.66E-06  1.46E-05  0.00E+00  0.00E+00  0.00E+00  0.00E+00  3.66E-06  1.46E-05  3.01E-04  0.00000
  iv          205
1                                             RADIANCE(WATTS/CM2-STER-XXX)
0  FREQ   WAVLEN    PATH THERMAL      SURFACE EMISSION    SURFACE REFLECTED     TOTAL RADIANCE   INTEGRAL    TOTAL
  (CM-1) (MICRN)    (CM-1)   (MICRN)    (CM-1)   (MICRN)    (CM-1)   (MICRN)    (CM-1)   (MICRN)    (CM-1)   TRANS

    202.   49.505  3.60E-06  1.47E-05  0.00E+00  0.00E+00  0.00E+00  0.00E+00  3.60E-06  1.47E-05  3.08E-04  0.00000
    204.   49.020  3.68E-06  1.53E-05  0.00E+00  0.00E+00  0.00E+00  0.00E+00  3.68E-06  1.53E-05  3.15E-04  0.00000
    206.   48.544  3.77E-06  1.60E-05  0.00E+00  0.00E+00  0.00E+00  0.00E+00  3.77E-06  1.60E-05  3.23E-04  0.00000
    208.   48.077  3.75E-06  1.62E-05  0.00E+00  0.00E+00  0.00E+00  0.00E+00  3.75E-06  1.62E-05  3.30E-04  0.00000
    210.   47.619  3.87E-06  1.71E-05  0.00E+00  0.00E+00  0.00E+00  0.00E+00  3.87E-06  1.71E-05  3.38E-04  0.00000
    212.   47.170  3.97E-06  1.79E-05  0.00E+00  0.00E+00  0.00E+00  0.00E+00  3.97E-06  1.79E-05  3.46E-04  0.00000
    214.   46.729  3.97E-06  1.82E-05  0.00E+00  0.00E+00  0.00E+00  0.00E+00  3.97E-06  1.82E-05  3.54E-04  0.00000
    216.   46.296  4.16E-06  1.94E-05  0.00E+00  0.00E+00  0.00E+00  0.00E+00  4.16E-06  1.94E-05  3.62E-04  0.00000
    218.   45.872  4.31E-06  2.05E-05  0.00E+00  0.00E+00  0.00E+00  0.00E+00  4.31E-06  2.05E-05  3.71E-04  0.00000
    220.   45.455  4.20E-06  2.03E-05  0.00E+00  0.00E+00  0.00E+00  0.00E+00  4.20E-06  2.03E-05  3.79E-04  0.00000
    222.   45.045  4.07E-06  2.01E-05  0.00E+00  0.00E+00  0.00E+00  0.00E+00  4.07E-06  2.01E-05  3.88E-04  0.00000
    224.   44.643  4.12E-06  2.07E-05  0.00E+00  0.00E+00  0.00E+00  0.00E+00  4.12E-06  2.07E-05  3.96E-04  0.00000
    226.   44.248  4.10E-06  2.10E-05  0.00E+00  0.00E+00  0.00E+00  0.00E+00  4.10E-06  2.10E-05  4.04E-04  0.00000
    228.   43.860  4.16E-06  2.16E-05  0.00E+00  0.00E+00  0.00E+00  0.00E+00  4.16E-06  2.16E-05  4.12E-04  0.00000
    230.   43.478  4.36E-06  2.31E-05  0.00E+00  0.00E+00  0.00E+00  0.00E+00  4.36E-06  2.31E-05  4.21E-04  0.00000
    232.   43.103  4.51E-06  2.43E-05  0.00E+00  0.00E+00  0.00E+00  0.00E+00  4.51E-06  2.43E-05  4.30E-04  0.00000
    234.   42.735  4.68E-06  2.56E-05  0.00E+00  0.00E+00  0.00E+00  0.00E+00  4.68E-06  2.56E-05  4.39E-04  0.00000
    236.   42.373  4.83E-06  2.69E-05  0.00E+00  0.00E+00  0.00E+00  0.00E+00  4.83E-06  2.69E-05  4.49E-04  0.00000
    238.   42.017  4.90E-06  2.78E-05  0.00E+00  0.00E+00  0.00E+00  0.00E+00  4.90E-06  2.78E-05  4.59E-04  0.00000
    240.   41.667  4.94E-06  2.85E-05  0.00E+00  0.00E+00  0.00E+00  0.00E+00  4.94E-06  2.85E-05  4.69E-04  0.00000
    242.   41.322  4.90E-06  2.87E-05  0.00E+00  0.00E+00  0.00E+00  0.00E+00  4.90E-06  2.87E-05  4.79E-04  0.00000
    244.   40.984  4.66E-06  2.77E-05  0.00E+00  0.00E+00  0.00E+00  0.00E+00  4.66E-06  2.77E-05  4.88E-04  0.00000
    246.   40.650  4.48E-06  2.71E-05  0.00E+00  0.00E+00  0.00E+00  0.00E+00  4.48E-06  2.71E-05  4.97E-04  0.00000
    248.   40.323  4.57E-06  2.81E-05  0.00E+00  0.00E+00  0.00E+00  0.00E+00  4.57E-06  2.81E-05  5.06E-04  0.00000
    250.   40.000  4.78E-06  2.99E-05  0.00E+00  0.00E+00  0.00E+00  0.00E+00  4.78E-06  2.99E-05  5.16E-04  0.00000
    252.   39.683  4.74E-06  3.01E-05  0.00E+00  0.00E+00  0.00E+00  0.00E+00  4.74E-06  3.01E-05  5.25E-04  0.00000
    254.   39.370  4.69E-06  3.03E-05  0.00E+00  0.00E+00  0.00E+00  0.00E+00  4.69E-06  3.03E-05  5.34E-04  0.00000
    256.   39.063  4.94E-06  3.24E-05  0.00E+00  0.00E+00  0.00E+00  0.00E+00  4.94E-06  3.24E-05  5.44E-04  0.00000
    258.   38.760  5.24E-06  3.49E-05  0.00E+00  0.00E+00  0.00E+00  0.00E+00  5.24E-06  3.49E-05  5.55E-04  0.00000
    260.   38.462  5.41E-06  3.66E-05  0.00E+00  0.00E+00  0.00E+00  0.00E+00  5.41E-06  3.66E-05  5.66E-04  0.00000
    262.   38.168  5.44E-06  3.74E-05  0.00E+00  0.00E+00  0.00E+00  0.00E+00  5.44E-06  3.74E-05  5.76E-04  0.00000
    264.   37.879  5.37E-06  3.75E-05  0.00E+00  0.00E+00  0.00E+00  0.00E+00  5.37E-06  3.75E-05  5.87E-04  0.00000
    266.   37.594  5.23E-06  3.70E-05  0.00E+00  0.00E+00  0.00E+00  0.00E+00  5.23E-06  3.70E-05  5.98E-04  0.00000
    268.   37.313  5.42E-06  3.90E-05  0.00E+00  0.00E+00  0.00E+00  0.00E+00  5.42E-06  3.90E-05  6.09E-04  0.00000
    270.   37.037  5.66E-06  4.12E-05  0.00E+00  0.00E+00  0.00E+00  0.00E+00  5.66E-06  4.12E-05  6.20E-04  0.00000
    272.   36.765  5.66E-06  4.19E-05  0.00E+00  0.00E+00  0.00E+00  0.00E+00  5.66E-06  4.19E-05  6.31E-04  0.00000
    274.   36.496  5.55E-06  4.16E-05  0.00E+00  0.00E+00  0.00E+00  0.00E+00  5.55E-06  4.16E-05  6.42E-04  0.00000
    276.   36.232  5.24E-06  3.99E-05  0.00E+00  0.00E+00  0.00E+00  0.00E+00  5.24E-06  3.99E-05  6.53E-04  0.00000
    278.   35.971  5.05E-06  3.90E-05  0.00E+00  0.00E+00  0.00E+00  0.00E+00  5.05E-06  3.90E-05  6.63E-04  0.00000
    280.   35.714  5.08E-06  3.99E-05  0.00E+00  0.00E+00  0.00E+00  0.00E+00  5.08E-06  3.99E-05  6.73E-04  0.00000
    282.   35.461  5.20E-06  4.14E-05  0.00E+00  0.00E+00  0.00E+00  0.00E+00  5.20E-06  4.14E-05  6.83E-04  0.00000
    284.   35.211  5.56E-06  4.49E-05  0.00E+00  0.00E+00  0.00E+00  0.00E+00  5.56E-06  4.49E-05  6.95E-04  0.00000
    286.   34.965  5.82E-06  4.76E-05  0.00E+00  0.00E+00  0.00E+00  0.00E+00  5.82E-06  4.76E-05  7.06E-04  0.00000
    288.   34.722  5.62E-06  4.66E-05  0.00E+00  0.00E+00  0.00E+00  0.00E+00  5.62E-06  4.66E-05  7.17E-04  0.00000
    290.   34.483  5.53E-06  4.65E-05  0.00E+00  0.00E+00  0.00E+00  0.00E+00  5.53E-06  4.65E-05  7.28E-04  0.00000
    292.   34.247  5.96E-06  5.08E-05  0.00E+00  0.00E+00  0.00E+00  0.00E+00  5.96E-06  5.08E-05  7.40E-04  0.00000
    294.   34.014  6.22E-06  5.38E-05  0.00E+00  0.00E+00  0.00E+00  0.00E+00  6.22E-06  5.38E-05  7.53E-04  0.00000
    296.   33.784  6.19E-06  5.43E-05  0.00E+00  0.00E+00  0.00E+00  0.00E+00  6.19E-06  5.43E-05  7.65E-04  0.00000
    298.   33.557  6.07E-06  5.39E-05  0.00E+00  0.00E+00  0.00E+00  0.00E+00  6.07E-06  5.39E-05  7.77E-04  0.00000
    300.   33.333  5.89E-06  5.30E-05  0.00E+00  0.00E+00  0.00E+00  0.00E+00  5.89E-06  5.30E-05  7.89E-04  0.00000
  iv          305
1                                             RADIANCE(WATTS/CM2-STER-XXX)
0  FREQ   WAVLEN    PATH THERMAL      SURFACE EMISSION    SURFACE REFLECTED     TOTAL RADIANCE   INTEGRAL    TOTAL
  (CM-1) (MICRN)    (CM-1)   (MICRN)    (CM-1)   (MICRN)    (CM-1)   (MICRN)    (CM-1)   (MICRN)    (CM-1)   TRANS

    302.   33.113  5.54E-06  5.06E-05  0.00E+00  0.00E+00  0.00E+00  0.00E+00  5.54E-06  5.06E-05  8.00E-04  0.00000
    304.   32.895  5.69E-06  5.26E-05  0.00E+00  0.00E+00  0.00E+00  0.00E+00  5.69E-06  5.26E-05  8.12E-04  0.00000
    306.   32.680  6.21E-06  5.82E-05  0.00E+00  0.00E+00  0.00E+00  0.00E+00  6.21E-06  5.82E-05  8.24E-04  0.00000
    308.   32.468  6.45E-06  6.11E-05  0.00E+00  0.00E+00  0.00E+00  0.00E+00  6.45E-06  6.11E-05  8.37E-04  0.00000
    310.   32.258  6.55E-06  6.29E-05  1.40E-42  1.35E-41  0.00E+00  0.00E+00  6.55E-06  6.29E-05  8.50E-04  0.00000
    312.   32.051  6.61E-06  6.44E-05  3.31E-42  3.22E-41  0.00E+00  0.00E+00  6.61E-06  6.44E-05  8.63E-04  0.00000
    314.   31.847  6.33E-06  6.25E-05  1.62E-39  1.60E-38  0.00E+00  0.00E+00  6.33E-06  6.25E-05  8.76E-04  0.00000
    316.   31.646  6.36E-06  6.35E-05  2.15E-39  2.14E-38  0.00E+00  0.00E+00  6.36E-06  6.35E-05  8.89E-04  0.00000
    318.   31.447  6.77E-06  6.84E-05  2.54E-39  2.57E-38  0.00E+00  0.00E+00  6.77E-06  6.84E-05  9.02E-04  0.00000
    320.   31.250  6.74E-06  6.91E-05  1.49E-39  1.53E-38  0.00E+00  0.00E+00  6.74E-06  6.91E-05  9.16E-04  0.00000
    322.   31.056  6.34E-06  6.57E-05  5.61E-45  5.75E-44  0.00E+00  0.00E+00  6.34E-06  6.57E-05  9.28E-04  0.00000
    324.   30.864  6.04E-06  6.34E-05  7.01E-45  7.29E-44  0.00E+00  0.00E+00  6.04E-06  6.34E-05  9.40E-04  0.00000
    326.   30.675  6.19E-06  6.57E-05  1.26E-44  1.35E-43  0.00E+00  0.00E+00  6.19E-06  6.57E-05  9.53E-04  0.00000
    328.   30.488  6.15E-06  6.62E-05  3.08E-44  3.32E-43  0.00E+00  0.00E+00  6.15E-06  6.62E-05  9.65E-04  0.00000
    330.   30.303  6.67E-06  7.26E-05  3.14E-42  3.42E-41  0.00E+00  0.00E+00  6.67E-06  7.26E-05  9.78E-04  0.00000
    332.   30.120  6.95E-06  7.66E-05  9.38E-42  1.03E-40  0.00E+00  0.00E+00  6.95E-06  7.66E-05  9.92E-04  0.00000
    334.   29.940  6.53E-06  7.28E-05  6.17E-35  6.89E-34  0.00E+00  0.00E+00  6.53E-06  7.28E-05  1.01E-03  0.00000
    336.   29.762  6.46E-06  7.29E-05  6.28E-35  7.09E-34  0.00E+00  0.00E+00  6.46E-06  7.29E-05  1.02E-03  0.00000
    338.   29.586  7.01E-06  8.01E-05  4.34E-36  4.96E-35  0.00E+00  0.00E+00  7.01E-06  8.01E-05  1.03E-03  0.00000
    340.   29.412  6.86E-06  7.93E-05  2.21E-31  2.56E-30  0.00E+00  0.00E+00  6.86E-06  7.93E-05  1.05E-03  0.00000
    342.   29.240  6.80E-06  7.95E-05  3.37E-31  3.94E-30  0.00E+00  0.00E+00  6.80E-06  7.95E-05  1.06E-03  0.00000
    344.   29.070  7.07E-06  8.36E-05  1.20E-31  1.42E-30  0.00E+00  0.00E+00  7.07E-06  8.36E-05  1.07E-03  0.00000
    346.   28.902  7.20E-06  8.62E-05  1.20E-32  1.44E-31  0.00E+00  0.00E+00  7.20E-06  8.62E-05  1.09E-03  0.00000
    348.   28.736  6.99E-06  8.47E-05  4.04E-33  4.89E-32  0.00E+00  0.00E+00  6.99E-06  8.47E-05  1.10E-03  0.00000
    350.   28.571  6.51E-06  7.98E-05  0.00E+00  0.00E+00  0.00E+00  0.00E+00  6.51E-06  7.98E-05  1.12E-03  0.00000
    352.   28.409  6.45E-06  7.99E-05  0.00E+00  0.00E+00  0.00E+00  0.00E+00  6.45E-06  7.99E-05  1.13E-03  0.00000
    354.   28.249  6.52E-06  8.17E-05  0.00E+00  0.00E+00  0.00E+00  0.00E+00  6.52E-06  8.17E-05  1.14E-03  0.00000
    356.   28.090  6.59E-06  8.35E-05  1.66E-42  2.11E-41  0.00E+00  0.00E+00  6.59E-06  8.35E-05  1.15E-03  0.00000
    358.   27.933  6.84E-06  8.77E-05  8.25E-29  1.06E-27  0.00E+00  0.00E+00  6.84E-06  8.77E-05  1.17E-03  0.00000
    360.   27.778  7.56E-06  9.80E-05  5.48E-22  7.10E-21  0.00E+00  0.00E+00  7.56E-06  9.80E-05  1.18E-03  0.00000
    362.   27.624  7.88E-06  1.03E-04  2.71E-19  3.55E-18  0.00E+00  0.00E+00  7.88E-06  1.03E-04  1.20E-03  0.00000
    364.   27.473  8.01E-06  1.06E-04  3.51E-18  4.65E-17  0.00E+00  0.00E+00  8.01E-06  1.06E-04  1.21E-03  0.00000
    366.   27.322  8.10E-06  1.09E-04  6.14E-18  8.23E-17  0.00E+00  0.00E+00  8.10E-06  1.09E-04  1.23E-03  0.00000
    368.   27.174  7.67E-06  1.04E-04  1.80E-18  2.43E-17  0.00E+00  0.00E+00  7.67E-06  1.04E-04  1.25E-03  0.00000
    370.   27.027  7.28E-06  9.97E-05  3.26E-23  4.47E-22  0.00E+00  0.00E+00  7.28E-06  9.97E-05  1.26E-03  0.00000
    372.   26.882  7.60E-06  1.05E-04  6.99E-25  9.67E-24  0.00E+00  0.00E+00  7.60E-06  1.05E-04  1.28E-03  0.00000
    374.   26.738  7.09E-06  9.91E-05  1.03E-25  1.44E-24  0.00E+00  0.00E+00  7.09E-06  9.91E-05  1.29E-03  0.00000
    376.   26.596  7.06E-06  9.98E-05  1.57E-25  2.22E-24  0.00E+00  0.00E+00  7.06E-06  9.98E-05  1.30E-03  0.00000
    378.   26.455  7.85E-06  1.12E-04  8.01E-18  1.14E-16  0.00E+00  0.00E+00  7.85E-06  1.12E-04  1.32E-03  0.00000
    380.   26.316  8.26E-06  1.19E-04  4.62E-17  6.67E-16  0.00E+00  0.00E+00  8.26E-06  1.19E-04  1.34E-03  0.00000
    382.   26.178  8.18E-06  1.19E-04  4.15E-17  6.06E-16  0.00E+00  0.00E+00  8.18E-06  1.19E-04  1.35E-03  0.00000
    384.   26.042  7.41E-06  1.09E-04  5.64E-18  8.31E-17  0.00E+00  0.00E+00  7.41E-06  1.09E-04  1.37E-03  0.00000
    386.   25.907  7.44E-06  1.11E-04  1.29E-15  1.92E-14  0.00E+00  0.00E+00  7.44E-06  1.11E-04  1.38E-03  0.00000
    388.   25.773  8.40E-06  1.26E-04  3.19E-14  4.81E-13  0.00E+00  0.00E+00  8.40E-06  1.26E-04  1.40E-03  0.00000
    390.   25.641  8.71E-06  1.32E-04  6.34E-14  9.64E-13  0.00E+00  0.00E+00  8.71E-06  1.32E-04  1.42E-03  0.00000
    392.   25.510  8.51E-06  1.31E-04  2.62E-14  4.02E-13  0.00E+00  0.00E+00  8.51E-06  1.31E-04  1.43E-03  0.00000
    394.   25.381  7.78E-06  1.21E-04  2.26E-16  3.51E-15  0.00E+00  0.00E+00  7.78E-06  1.21E-04  1.45E-03  0.00000
    396.   25.253  7.12E-06  1.12E-04  6.56E-21  1.03E-19  0.00E+00  0.00E+00  7.12E-06  1.12E-04  1.46E-03  0.00000
    398.   25.126  6.97E-06  1.10E-04  2.69E-31  4.26E-30  0.00E+00  0.00E+00  6.97E-06  1.10E-04  1.48E-03  0.00000
    400.   25.000  7.60E-06  1.22E-04  7.43E-16  1.19E-14  0.00E+00  0.00E+00  7.60E-06  1.22E-04  1.49E-03  0.00000
  iv          405
1                                             RADIANCE(WATTS/CM2-STER-XXX)
0  FREQ   WAVLEN    PATH THERMAL      SURFACE EMISSION    SURFACE REFLECTED     TOTAL RADIANCE   INTEGRAL    TOTAL
  (CM-1) (MICRN)    (CM-1)   (MICRN)    (CM-1)   (MICRN)    (CM-1)   (MICRN)    (CM-1)   (MICRN)    (CM-1)   TRANS

    402.   24.876  8.66E-06  1.40E-04  1.31E-12  2.11E-11  0.00E+00  0.00E+00  8.66E-06  1.40E-04  1.51E-03  0.00000
    404.   24.752  9.06E-06  1.48E-04  9.34E-12  1.52E-10  0.00E+00  0.00E+00  9.06E-06  1.48E-04  1.53E-03  0.00000
    406.   24.631  9.19E-06  1.52E-04  7.80E-11  1.29E-09  0.00E+00  0.00E+00  9.19E-06  1.52E-04  1.55E-03  0.00001
    408.   24.510  9.38E-06  1.56E-04  2.14E-10  3.56E-09  0.00E+00  0.00E+00  9.38E-06  1.56E-04  1.57E-03  0.00002
    410.   24.390  9.42E-06  1.58E-04  2.55E-10  4.28E-09  0.00E+00  0.00E+00  9.42E-06  1.58E-04  1.58E-03  0.00002
    412.   24.272  9.41E-06  1.60E-04  1.74E-10  2.96E-09  0.00E+00  0.00E+00  9.41E-06  1.60E-04  1.60E-03  0.00001
    414.   24.155  9.17E-06  1.57E-04  4.59E-11  7.86E-10  0.00E+00  0.00E+00  9.17E-06  1.57E-04  1.62E-03  0.00000
    416.   24.038  8.49E-06  1.47E-04  1.42E-12  2.46E-11  0.00E+00  0.00E+00  8.49E-06  1.47E-04  1.64E-03  0.00000
    418.   23.923  7.35E-06  1.28E-04  9.31E-18  1.63E-16  0.00E+00  0.00E+00  7.35E-06  1.28E-04  1.65E-03  0.00000
    420.   23.810  7.40E-06  1.30E-04  1.63E-26  2.87E-25  0.00E+00  0.00E+00  7.40E-06  1.30E-04  1.67E-03  0.00000
    422.   23.697  8.19E-06  1.46E-04  1.38E-18  2.46E-17  0.00E+00  0.00E+00  8.19E-06  1.46E-04  1.68E-03  0.00000
    424.   23.585  8.40E-06  1.51E-04  1.02E-15  1.83E-14  0.00E+00  0.00E+00  8.40E-06  1.51E-04  1.70E-03  0.00000
    426.   23.474  8.75E-06  1.59E-04  1.10E-10  2.00E-09  0.00E+00  0.00E+00  8.75E-06  1.59E-04  1.72E-03  0.00001
    428.   23.364  9.43E-06  1.73E-04  5.23E-10  9.58E-09  0.00E+00  0.00E+00  9.43E-06  1.73E-04  1.74E-03  0.00004
    430.   23.256  9.18E-06  1.70E-04  3.69E-10  6.82E-09  0.00E+00  0.00E+00  9.18E-06  1.70E-04  1.76E-03  0.00003
    432.   23.148  9.11E-06  1.70E-04  5.30E-10  9.89E-09  0.00E+00  0.00E+00  9.11E-06  1.70E-04  1.77E-03  0.00004
    434.   23.041  9.39E-06  1.77E-04  5.22E-10  9.84E-09  0.00E+00  0.00E+00  9.39E-06  1.77E-04  1.79E-03  0.00004
    436.   22.936  9.17E-06  1.74E-04  3.43E-10  6.52E-09  0.00E+00  0.00E+00  9.17E-06  1.74E-04  1.81E-03  0.00003
    438.   22.831  9.70E-06  1.86E-04  2.08E-09  3.98E-08  0.00E+00  0.00E+00  9.70E-06  1.86E-04  1.83E-03  0.00017
    440.   22.727  9.38E-06  1.82E-04  1.73E-09  3.34E-08  0.00E+00  0.00E+00  9.38E-06  1.82E-04  1.85E-03  0.00014
    442.   22.624  8.30E-06  1.62E-04  1.52E-10  2.97E-09  0.00E+00  0.00E+00  8.30E-06  1.62E-04  1.87E-03  0.00001
    444.   22.523  8.74E-06  1.72E-04  3.53E-11  6.95E-10  0.00E+00  0.00E+00  8.74E-06  1.72E-04  1.88E-03  0.00000
    446.   22.422  9.28E-06  1.85E-04  4.23E-10  8.40E-09  0.00E+00  0.00E+00  9.28E-06  1.85E-04  1.90E-03  0.00003
    448.   22.321  9.75E-06  1.96E-04  6.48E-09  1.30E-07  0.00E+00  0.00E+00  9.76E-06  1.96E-04  1.92E-03  0.00051
    450.   22.222  1.00E-05  2.03E-04  7.16E-09  1.45E-07  0.00E+00  0.00E+00  1.00E-05  2.03E-04  1.94E-03  0.00057
    452.   22.124  9.36E-06  1.91E-04  1.01E-09  2.06E-08  0.00E+00  0.00E+00  9.36E-06  1.91E-04  1.96E-03  0.00008
    454.   22.026  9.29E-06  1.92E-04  4.12E-11  8.48E-10  0.00E+00  0.00E+00  9.29E-06  1.92E-04  1.98E-03  0.00000
    456.   21.930  8.64E-06  1.80E-04  1.37E-11  2.85E-10  0.00E+00  0.00E+00  8.64E-06  1.80E-04  2.00E-03  0.00000
    458.   21.834  8.03E-06  1.69E-04  4.72E-12  9.91E-11  0.00E+00  0.00E+00  8.03E-06  1.69E-04  2.01E-03  0.00000
    460.   21.739  9.19E-06  1.94E-04  6.70E-11  1.42E-09  0.00E+00  0.00E+00  9.19E-06  1.94E-04  2.03E-03  0.00001
    462.   21.645  9.98E-06  2.13E-04  1.31E-08  2.79E-07  0.00E+00  0.00E+00  9.99E-06  2.13E-04  2.05E-03  0.00102
    464.   21.552  1.04E-05  2.24E-04  5.16E-08  1.11E-06  0.00E+00  0.00E+00  1.05E-05  2.25E-04  2.07E-03  0.00402
    466.   21.459  1.01E-05  2.20E-04  4.02E-08  8.73E-07  0.00E+00  0.00E+00  1.02E-05  2.21E-04  2.09E-03  0.00313
    468.   21.368  9.59E-06  2.10E-04  4.05E-09  8.88E-08  0.00E+00  0.00E+00  9.59E-06  2.10E-04  2.11E-03  0.00031
    470.   21.277  9.40E-06  2.08E-04  9.35E-10  2.06E-08  0.00E+00  0.00E+00  9.40E-06  2.08E-04  2.13E-03  0.00007
    472.   21.186  8.36E-06  1.86E-04  2.18E-10  4.86E-09  0.00E+00  0.00E+00  8.36E-06  1.86E-04  2.15E-03  0.00002
    474.   21.097  8.98E-06  2.02E-04  2.93E-09  6.58E-08  0.00E+00  0.00E+00  8.99E-06  2.02E-04  2.16E-03  0.00023
    476.   21.008  1.02E-05  2.31E-04  4.65E-08  1.05E-06  0.00E+00  0.00E+00  1.02E-05  2.32E-04  2.19E-03  0.00358
    478.   20.921  1.06E-05  2.42E-04  1.84E-07  4.20E-06  0.00E+00  0.00E+00  1.08E-05  2.47E-04  2.21E-03  0.01415
    480.   20.833  1.05E-05  2.42E-04  1.60E-07  3.69E-06  0.00E+00  0.00E+00  1.07E-05  2.46E-04  2.23E-03  0.01231
    482.   20.747  9.76E-06  2.27E-04  3.28E-08  7.61E-07  0.00E+00  0.00E+00  9.79E-06  2.27E-04  2.25E-03  0.00252
    484.   20.661  9.05E-06  2.12E-04  3.47E-09  8.14E-08  0.00E+00  0.00E+00  9.05E-06  2.12E-04  2.27E-03  0.00027
    486.   20.576  9.91E-06  2.34E-04  6.34E-08  1.50E-06  0.00E+00  0.00E+00  9.98E-06  2.36E-04  2.29E-03  0.00484
    488.   20.492  1.06E-05  2.53E-04  2.85E-07  6.79E-06  0.00E+00  0.00E+00  1.09E-05  2.60E-04  2.31E-03  0.02177
    490.   20.408  1.04E-05  2.51E-04  2.29E-07  5.50E-06  0.00E+00  0.00E+00  1.07E-05  2.56E-04  2.33E-03  0.01749
    492.   20.325  9.72E-06  2.35E-04  4.10E-08  9.93E-07  0.00E+00  0.00E+00  9.76E-06  2.36E-04  2.35E-03  0.00313
    494.   20.243  1.02E-05  2.50E-04  2.62E-07  6.40E-06  0.00E+00  0.00E+00  1.05E-05  2.56E-04  2.37E-03  0.01994
    496.   20.161  1.06E-05  2.61E-04  7.74E-07  1.90E-05  0.00E+00  0.00E+00  1.14E-05  2.80E-04  2.39E-03  0.05879
    498.   20.080  1.06E-05  2.64E-04  7.97E-07  1.98E-05  0.00E+00  0.00E+00  1.14E-05  2.83E-04  2.41E-03  0.06051
    500.   20.000  1.03E-05  2.58E-04  2.99E-07  7.48E-06  0.00E+00  0.00E+00  1.06E-05  2.65E-04  2.44E-03  0.02268
  iv          505
1                                             RADIANCE(WATTS/CM2-STER-XXX)
0  FREQ   WAVLEN    PATH THERMAL      SURFACE EMISSION    SURFACE REFLECTED     TOTAL RADIANCE   INTEGRAL    TOTAL
  (CM-1) (MICRN)    (CM-1)   (MICRN)    (CM-1)   (MICRN)    (CM-1)   (MICRN)    (CM-1)   (MICRN)    (CM-1)   TRANS

    502.   19.920  9.34E-06  2.35E-04  2.03E-08  5.10E-07  0.00E+00  0.00E+00  9.36E-06  2.36E-04  2.45E-03  0.00154
    504.   19.841  9.70E-06  2.47E-04  7.38E-09  1.87E-07  0.00E+00  0.00E+00  9.71E-06  2.47E-04  2.47E-03  0.00056
    506.   19.763  9.46E-06  2.42E-04  7.38E-09  1.89E-07  0.00E+00  0.00E+00  9.47E-06  2.43E-04  2.49E-03  0.00056
    508.   19.685  9.81E-06  2.53E-04  8.47E-08  2.19E-06  0.00E+00  0.00E+00  9.90E-06  2.55E-04  2.51E-03  0.00639
    510.   19.608  1.05E-05  2.72E-04  1.35E-07  3.51E-06  0.00E+00  0.00E+00  1.06E-05  2.75E-04  2.53E-03  0.01018
    512.   19.531  1.05E-05  2.74E-04  3.44E-07  9.03E-06  0.00E+00  0.00E+00  1.08E-05  2.83E-04  2.56E-03  0.02593
    514.   19.455  1.05E-05  2.78E-04  3.39E-07  8.96E-06  0.00E+00  0.00E+00  1.09E-05  2.87E-04  2.58E-03  0.02553
    516.   19.380  9.54E-06  2.54E-04  3.84E-08  1.02E-06  0.00E+00  0.00E+00  9.58E-06  2.55E-04  2.60E-03  0.00289
    518.   19.305  8.91E-06  2.39E-04  5.19E-11  1.39E-09  0.00E+00  0.00E+00  8.91E-06  2.39E-04  2.61E-03  0.00000
    520.   19.231  9.55E-06  2.58E-04  8.18E-08  2.21E-06  0.00E+00  0.00E+00  9.63E-06  2.60E-04  2.63E-03  0.00613
    522.   19.157  1.06E-05  2.88E-04  3.78E-07  1.03E-05  0.00E+00  0.00E+00  1.09E-05  2.98E-04  2.66E-03  0.02832
    524.   19.084  1.02E-05  2.80E-04  2.63E-07  7.22E-06  0.00E+00  0.00E+00  1.05E-05  2.87E-04  2.68E-03  0.01972
    526.   19.011  9.55E-06  2.64E-04  1.17E-07  3.25E-06  0.00E+00  0.00E+00  9.67E-06  2.68E-04  2.70E-03  0.00879
    528.   18.939  1.02E-05  2.86E-04  7.55E-07  2.10E-05  0.00E+00  0.00E+00  1.10E-05  3.07E-04  2.72E-03  0.05649
    530.   18.868  9.91E-06  2.78E-04  1.95E-06  5.47E-05  0.00E+00  0.00E+00  1.19E-05  3.33E-04  2.74E-03  0.14573
    532.   18.797  9.70E-06  2.75E-04  2.24E-06  6.34E-05  0.00E+00  0.00E+00  1.19E-05  3.38E-04  2.77E-03  0.16748
    534.   18.727  1.01E-05  2.88E-04  1.26E-06  3.59E-05  0.00E+00  0.00E+00  1.14E-05  3.24E-04  2.79E-03  0.09415
    536.   18.657  1.00E-05  2.88E-04  6.08E-07  1.75E-05  0.00E+00  0.00E+00  1.06E-05  3.05E-04  2.81E-03  0.04540
    538.   18.587  9.88E-06  2.86E-04  1.50E-06  4.33E-05  0.00E+00  0.00E+00  1.14E-05  3.29E-04  2.83E-03  0.11172
    540.   18.519  9.83E-06  2.87E-04  1.66E-06  4.85E-05  0.00E+00  0.00E+00  1.15E-05  3.35E-04  2.86E-03  0.12403
    542.   18.450  1.01E-05  2.98E-04  1.19E-06  3.51E-05  0.00E+00  0.00E+00  1.13E-05  3.33E-04  2.88E-03  0.08910
    544.   18.382  9.78E-06  2.89E-04  7.97E-07  2.36E-05  0.00E+00  0.00E+00  1.06E-05  3.13E-04  2.90E-03  0.05945
    546.   18.315  9.39E-06  2.80E-04  7.76E-08  2.31E-06  0.00E+00  0.00E+00  9.47E-06  2.82E-04  2.92E-03  0.00579
    548.   18.248  9.92E-06  2.98E-04  3.13E-07  9.38E-06  0.00E+00  0.00E+00  1.02E-05  3.07E-04  2.94E-03  0.02328
    550.   18.182  1.02E-05  3.07E-04  5.76E-07  1.74E-05  0.00E+00  0.00E+00  1.07E-05  3.25E-04  2.96E-03  0.04289
    552.   18.116  1.00E-05  3.05E-04  1.39E-06  4.24E-05  0.00E+00  0.00E+00  1.14E-05  3.48E-04  2.98E-03  0.10357
    554.   18.051  9.89E-06  3.04E-04  1.35E-06  4.13E-05  0.00E+00  0.00E+00  1.12E-05  3.45E-04  3.01E-03  0.10028
    556.   17.986  9.72E-06  3.00E-04  1.56E-06  4.81E-05  0.00E+00  0.00E+00  1.13E-05  3.49E-04  3.03E-03  0.11589
    558.   17.921  9.31E-06  2.90E-04  2.64E-06  8.21E-05  0.00E+00  0.00E+00  1.19E-05  3.72E-04  3.05E-03  0.19638
    560.   17.857  8.74E-06  2.74E-04  3.45E-06  1.08E-04  0.00E+00  0.00E+00  1.22E-05  3.82E-04  3.08E-03  0.25680
    562.   17.794  9.07E-06  2.86E-04  2.50E-06  7.91E-05  0.00E+00  0.00E+00  1.16E-05  3.65E-04  3.10E-03  0.18641
    564.   17.730  9.87E-06  3.14E-04  1.36E-06  4.31E-05  0.00E+00  0.00E+00  1.12E-05  3.57E-04  3.12E-03  0.10088
    566.   17.668  9.82E-06  3.15E-04  9.62E-07  3.08E-05  0.00E+00  0.00E+00  1.08E-05  3.45E-04  3.14E-03  0.07158
    568.   17.606  9.49E-06  3.06E-04  1.19E-07  3.83E-06  0.00E+00  0.00E+00  9.61E-06  3.10E-04  3.16E-03  0.00884
    570.   17.544  9.78E-06  3.18E-04  1.98E-07  6.45E-06  0.00E+00  0.00E+00  9.98E-06  3.24E-04  3.18E-03  0.01477
    572.   17.483  9.91E-06  3.24E-04  1.26E-06  4.11E-05  0.00E+00  0.00E+00  1.12E-05  3.65E-04  3.20E-03  0.09348
    574.   17.422  9.56E-06  3.15E-04  1.60E-06  5.27E-05  0.00E+00  0.00E+00  1.12E-05  3.68E-04  3.23E-03  0.11905
    576.   17.361  9.55E-06  3.17E-04  5.05E-07  1.67E-05  0.00E+00  0.00E+00  1.01E-05  3.34E-04  3.25E-03  0.03756
    578.   17.301  9.74E-06  3.25E-04  6.32E-07  2.11E-05  0.00E+00  0.00E+00  1.04E-05  3.47E-04  3.27E-03  0.04705
    580.   17.241  9.52E-06  3.20E-04  4.41E-07  1.48E-05  0.00E+00  0.00E+00  9.96E-06  3.35E-04  3.29E-03  0.03282
    582.   17.182  9.37E-06  3.17E-04  3.10E-07  1.05E-05  0.00E+00  0.00E+00  9.68E-06  3.28E-04  3.31E-03  0.02311
    584.   17.123  9.36E-06  3.19E-04  4.69E-07  1.60E-05  0.00E+00  0.00E+00  9.83E-06  3.35E-04  3.33E-03  0.03492
    586.   17.065  8.91E-06  3.06E-04  6.77E-07  2.32E-05  0.00E+00  0.00E+00  9.59E-06  3.29E-04  3.35E-03  0.05044
    588.   17.007  8.63E-06  2.98E-04  1.01E-06  3.48E-05  0.00E+00  0.00E+00  9.64E-06  3.33E-04  3.37E-03  0.07501
    590.   16.949  8.48E-06  2.95E-04  4.08E-07  1.42E-05  0.00E+00  0.00E+00  8.89E-06  3.10E-04  3.38E-03  0.03045
    592.   16.892  8.21E-06  2.88E-04  3.25E-08  1.14E-06  0.00E+00  0.00E+00  8.24E-06  2.89E-04  3.40E-03  0.00242
    594.   16.835  7.89E-06  2.79E-04  2.07E-08  7.32E-07  0.00E+00  0.00E+00  7.91E-06  2.79E-04  3.42E-03  0.00155
    596.   16.779  7.33E-06  2.60E-04  4.58E-08  1.63E-06  0.00E+00  0.00E+00  7.38E-06  2.62E-04  3.43E-03  0.00342
    598.   16.722  7.51E-06  2.69E-04  1.29E-07  4.62E-06  0.00E+00  0.00E+00  7.64E-06  2.73E-04  3.45E-03  0.00965
    600.   16.667  8.01E-06  2.89E-04  1.48E-07  5.34E-06  0.00E+00  0.00E+00  8.16E-06  2.94E-04  3.46E-03  0.01109
  iv          605
1                                             RADIANCE(WATTS/CM2-STER-XXX)
0  FREQ   WAVLEN    PATH THERMAL      SURFACE EMISSION    SURFACE REFLECTED     TOTAL RADIANCE   INTEGRAL    TOTAL
  (CM-1) (MICRN)    (CM-1)   (MICRN)    (CM-1)   (MICRN)    (CM-1)   (MICRN)    (CM-1)   (MICRN)    (CM-1)   TRANS

    602.   16.611  7.67E-06  2.78E-04  1.37E-07  4.97E-06  0.00E+00  0.00E+00  7.80E-06  2.83E-04  3.48E-03  0.01026
    604.   16.556  7.34E-06  2.68E-04  9.99E-08  3.64E-06  0.00E+00  0.00E+00  7.44E-06  2.72E-04  3.49E-03  0.00747
    606.   16.502  7.12E-06  2.61E-04  7.86E-08  2.89E-06  0.00E+00  0.00E+00  7.19E-06  2.64E-04  3.51E-03  0.00588
    608.   16.447  7.01E-06  2.59E-04  8.07E-08  2.98E-06  0.00E+00  0.00E+00  7.09E-06  2.62E-04  3.52E-03  0.00604
    610.   16.393  7.24E-06  2.69E-04  1.05E-07  3.91E-06  0.00E+00  0.00E+00  7.34E-06  2.73E-04  3.54E-03  0.00787
    612.   16.340  7.27E-06  2.72E-04  1.10E-07  4.13E-06  0.00E+00  0.00E+00  7.38E-06  2.76E-04  3.55E-03  0.00827
    614.   16.287  6.76E-06  2.55E-04  3.96E-08  1.49E-06  0.00E+00  0.00E+00  6.79E-06  2.56E-04  3.56E-03  0.00297
    616.   16.234  6.05E-06  2.30E-04  6.09E-09  2.31E-07  0.00E+00  0.00E+00  6.06E-06  2.30E-04  3.58E-03  0.00046
    618.   16.181  5.94E-06  2.27E-04  2.52E-09  9.62E-08  0.00E+00  0.00E+00  5.94E-06  2.27E-04  3.59E-03  0.00019
    620.   16.129  6.45E-06  2.48E-04  1.00E-08  3.86E-07  0.00E+00  0.00E+00  6.46E-06  2.48E-04  3.60E-03  0.00076
    622.   16.077  6.39E-06  2.47E-04  1.60E-08  6.19E-07  0.00E+00  0.00E+00  6.41E-06  2.48E-04  3.61E-03  0.00120
    624.   16.026  6.03E-06  2.35E-04  9.42E-09  3.67E-07  0.00E+00  0.00E+00  6.04E-06  2.35E-04  3.63E-03  0.00071
    626.   15.974  5.74E-06  2.25E-04  2.40E-10  9.41E-09  0.00E+00  0.00E+00  5.74E-06  2.25E-04  3.64E-03  0.00002
    628.   15.924  5.51E-06  2.17E-04  1.10E-10  4.36E-09  0.00E+00  0.00E+00  5.51E-06  2.17E-04  3.65E-03  0.00001
    630.   15.873  5.37E-06  2.13E-04  6.57E-11  2.61E-09  0.00E+00  0.00E+00  5.37E-06  2.13E-04  3.66E-03  0.00000
    632.   15.823  5.26E-06  2.10E-04  6.09E-12  2.43E-10  0.00E+00  0.00E+00  5.26E-06  2.10E-04  3.67E-03  0.00000
    634.   15.773  5.18E-06  2.08E-04  7.69E-13  3.09E-11  0.00E+00  0.00E+00  5.18E-06  2.08E-04  3.68E-03  0.00000
    636.   15.723  5.13E-06  2.07E-04  1.39E-14  5.63E-13  0.00E+00  0.00E+00  5.13E-06  2.07E-04  3.69E-03  0.00000
    638.   15.674  5.11E-06  2.08E-04  3.88E-17  1.58E-15  0.00E+00  0.00E+00  5.11E-06  2.08E-04  3.70E-03  0.00000
    640.   15.625  5.11E-06  2.09E-04  2.58E-18  1.06E-16  0.00E+00  0.00E+00  5.11E-06  2.09E-04  3.71E-03  0.00000
    642.   15.576  5.14E-06  2.12E-04  8.43E-20  3.47E-18  0.00E+00  0.00E+00  5.14E-06  2.12E-04  3.72E-03  0.00000
    644.   15.528  5.19E-06  2.15E-04  6.43E-23  2.67E-21  0.00E+00  0.00E+00  5.19E-06  2.15E-04  3.73E-03  0.00000
    646.   15.480  5.27E-06  2.20E-04  7.07E-25  2.95E-23  0.00E+00  0.00E+00  5.27E-06  2.20E-04  3.74E-03  0.00000
    648.   15.432  5.57E-06  2.34E-04  8.98E-27  3.77E-25  0.00E+00  0.00E+00  5.57E-06  2.34E-04  3.75E-03  0.00000
    650.   15.385  5.60E-06  2.37E-04  5.66E-32  2.39E-30  0.00E+00  0.00E+00  5.60E-06  2.37E-04  3.76E-03  0.00000
    652.   15.337  5.35E-06  2.27E-04  1.76E-31  7.47E-30  0.00E+00  0.00E+00  5.35E-06  2.27E-04  3.77E-03  0.00000
    654.   15.291  5.26E-06  2.25E-04  1.59E-26  6.79E-25  0.00E+00  0.00E+00  5.26E-06  2.25E-04  3.79E-03  0.00000
    656.   15.244  5.25E-06  2.26E-04  1.59E-26  6.83E-25  0.00E+00  0.00E+00  5.25E-06  2.26E-04  3.80E-03  0.00000
    658.   15.198  5.28E-06  2.29E-04  1.26E-31  5.46E-30  0.00E+00  0.00E+00  5.28E-06  2.29E-04  3.81E-03  0.00000
    660.   15.152  5.25E-06  2.29E-04  1.17E-31  5.12E-30  0.00E+00  0.00E+00  5.25E-06  2.29E-04  3.82E-03  0.00000
    662.   15.106  5.44E-06  2.38E-04  8.99E-32  3.94E-30  0.00E+00  0.00E+00  5.44E-06  2.38E-04  3.83E-03  0.00000
    664.   15.060  5.45E-06  2.40E-04  0.00E+00  0.00E+00  0.00E+00  0.00E+00  5.45E-06  2.40E-04  3.84E-03  0.00000
    666.   15.015  5.97E-06  2.65E-04  0.00E+00  0.00E+00  0.00E+00  0.00E+00  5.97E-06  2.65E-04  3.85E-03  0.00000
    668.   14.970  6.98E-06  3.12E-04  0.00E+00  0.00E+00  0.00E+00  0.00E+00  6.98E-06  3.12E-04  3.86E-03  0.00000
    670.   14.925  6.09E-06  2.73E-04  0.00E+00  0.00E+00  0.00E+00  0.00E+00  6.09E-06  2.73E-04  3.88E-03  0.00000
    672.   14.881  5.30E-06  2.39E-04  3.58E-37  1.62E-35  0.00E+00  0.00E+00  5.30E-06  2.39E-04  3.89E-03  0.00000
    674.   14.837  5.19E-06  2.36E-04  1.36E-31  6.19E-30  0.00E+00  0.00E+00  5.19E-06  2.36E-04  3.90E-03  0.00000
    676.   14.793  5.12E-06  2.34E-04  4.09E-31  1.87E-29  0.00E+00  0.00E+00  5.12E-06  2.34E-04  3.91E-03  0.00000
    678.   14.749  5.16E-06  2.37E-04  1.36E-31  6.26E-30  0.00E+00  0.00E+00  5.16E-06  2.37E-04  3.92E-03  0.00000
    680.   14.706  5.13E-06  2.37E-04  1.92E-37  8.87E-36  0.00E+00  0.00E+00  5.13E-06  2.37E-04  3.93E-03  0.00000
    682.   14.663  5.08E-06  2.36E-04  4.60E-29  2.14E-27  0.00E+00  0.00E+00  5.08E-06  2.36E-04  3.94E-03  0.00000
    684.   14.620  4.96E-06  2.32E-04  1.57E-28  7.33E-27  0.00E+00  0.00E+00  4.96E-06  2.32E-04  3.95E-03  0.00000
    686.   14.577  4.93E-06  2.32E-04  1.02E-28  4.82E-27  0.00E+00  0.00E+00  4.93E-06  2.32E-04  3.96E-03  0.00000
    688.   14.535  4.90E-06  2.32E-04  5.68E-29  2.69E-27  0.00E+00  0.00E+00  4.90E-06  2.32E-04  3.97E-03  0.00000
    690.   14.493  4.84E-06  2.30E-04  7.57E-21  3.60E-19  0.00E+00  0.00E+00  4.84E-06  2.30E-04  3.98E-03  0.00000
    692.   14.451  4.66E-06  2.23E-04  4.56E-20  2.18E-18  0.00E+00  0.00E+00  4.66E-06  2.23E-04  3.99E-03  0.00000
    694.   14.409  4.61E-06  2.22E-04  1.05E-19  5.03E-18  0.00E+00  0.00E+00  4.61E-06  2.22E-04  4.00E-03  0.00000
    696.   14.368  4.56E-06  2.21E-04  4.43E-18  2.15E-16  0.00E+00  0.00E+00  4.56E-06  2.21E-04  4.01E-03  0.00000
    698.   14.327  4.52E-06  2.20E-04  3.04E-14  1.48E-12  0.00E+00  0.00E+00  4.52E-06  2.20E-04  4.01E-03  0.00000
    700.   14.286  4.48E-06  2.20E-04  9.42E-14  4.62E-12  0.00E+00  0.00E+00  4.48E-06  2.20E-04  4.02E-03  0.00000
  iv          705
1                                             RADIANCE(WATTS/CM2-STER-XXX)
0  FREQ   WAVLEN    PATH THERMAL      SURFACE EMISSION    SURFACE REFLECTED     TOTAL RADIANCE   INTEGRAL    TOTAL
  (CM-1) (MICRN)    (CM-1)   (MICRN)    (CM-1)   (MICRN)    (CM-1)   (MICRN)    (CM-1)   (MICRN)    (CM-1)   TRANS

    702.   14.245  4.51E-06  2.22E-04  4.39E-14  2.16E-12  0.00E+00  0.00E+00  4.51E-06  2.22E-04  4.03E-03  0.00000
    704.   14.205  4.63E-06  2.29E-04  2.29E-12  1.14E-10  0.00E+00  0.00E+00  4.63E-06  2.29E-04  4.04E-03  0.00000
    706.   14.164  4.78E-06  2.38E-04  2.60E-11  1.29E-09  0.00E+00  0.00E+00  4.78E-06  2.38E-04  4.05E-03  0.00000
    708.   14.124  4.90E-06  2.46E-04  3.45E-10  1.73E-08  0.00E+00  0.00E+00  4.90E-06  2.46E-04  4.06E-03  0.00003
    710.   14.085  5.01E-06  2.53E-04  2.31E-09  1.16E-07  0.00E+00  0.00E+00  5.01E-06  2.53E-04  4.07E-03  0.00018
    712.   14.045  5.23E-06  2.65E-04  5.95E-09  3.02E-07  0.00E+00  0.00E+00  5.24E-06  2.66E-04  4.08E-03  0.00048
    714.   14.006  5.43E-06  2.77E-04  1.10E-08  5.59E-07  0.00E+00  0.00E+00  5.45E-06  2.78E-04  4.09E-03  0.00088
    716.   13.966  5.49E-06  2.81E-04  1.78E-08  9.11E-07  0.00E+00  0.00E+00  5.50E-06  2.82E-04  4.10E-03  0.00143
    718.   13.928  5.03E-06  2.59E-04  7.85E-09  4.05E-07  0.00E+00  0.00E+00  5.04E-06  2.60E-04  4.11E-03  0.00063
    720.   13.889  4.73E-06  2.45E-04  2.21E-10  1.15E-08  0.00E+00  0.00E+00  4.73E-06  2.45E-04  4.12E-03  0.00002
    722.   13.850  5.49E-06  2.86E-04  6.40E-08  3.34E-06  0.00E+00  0.00E+00  5.55E-06  2.89E-04  4.13E-03  0.00517
    724.   13.812  6.12E-06  3.21E-04  2.66E-07  1.39E-05  0.00E+00  0.00E+00  6.39E-06  3.35E-04  4.15E-03  0.02147
    726.   13.774  6.37E-06  3.36E-04  5.04E-07  2.66E-05  0.00E+00  0.00E+00  6.88E-06  3.63E-04  4.16E-03  0.04082
    728.   13.736  6.26E-06  3.32E-04  3.08E-07  1.63E-05  0.00E+00  0.00E+00  6.57E-06  3.48E-04  4.17E-03  0.02499
    730.   13.699  5.96E-06  3.17E-04  1.33E-07  7.11E-06  0.00E+00  0.00E+00  6.09E-06  3.24E-04  4.19E-03  0.01084
    732.   13.661  5.91E-06  3.17E-04  1.43E-07  7.67E-06  0.00E+00  0.00E+00  6.06E-06  3.25E-04  4.20E-03  0.01166
    734.   13.624  5.98E-06  3.22E-04  1.82E-07  9.80E-06  0.00E+00  0.00E+00  6.16E-06  3.32E-04  4.21E-03  0.01485
    736.   13.587  5.99E-06  3.24E-04  1.94E-07  1.05E-05  0.00E+00  0.00E+00  6.18E-06  3.35E-04  4.22E-03  0.01586
    738.   13.550  5.97E-06  3.25E-04  1.57E-07  8.56E-06  0.00E+00  0.00E+00  6.12E-06  3.33E-04  4.24E-03  0.01287
    740.   13.514  5.70E-06  3.12E-04  8.14E-08  4.46E-06  0.00E+00  0.00E+00  5.78E-06  3.17E-04  4.25E-03  0.00668
    742.   13.477  5.74E-06  3.16E-04  2.94E-07  1.62E-05  0.00E+00  0.00E+00  6.03E-06  3.32E-04  4.26E-03  0.02422
    744.   13.441  6.41E-06  3.55E-04  7.18E-07  3.97E-05  0.00E+00  0.00E+00  7.13E-06  3.95E-04  4.27E-03  0.05924
    746.   13.405  6.51E-06  3.62E-04  1.15E-06  6.41E-05  0.00E+00  0.00E+00  7.66E-06  4.26E-04  4.29E-03  0.09523
    748.   13.369  6.46E-06  3.62E-04  1.46E-06  8.16E-05  0.00E+00  0.00E+00  7.92E-06  4.43E-04  4.30E-03  0.12077
    750.   13.333  6.34E-06  3.57E-04  1.84E-06  1.03E-04  0.00E+00  0.00E+00  8.18E-06  4.60E-04  4.32E-03  0.15273
    752.   13.298  6.38E-06  3.61E-04  2.08E-06  1.18E-04  0.00E+00  0.00E+00  8.46E-06  4.79E-04  4.34E-03  0.17307
    754.   13.263  6.68E-06  3.80E-04  1.85E-06  1.05E-04  0.00E+00  0.00E+00  8.53E-06  4.85E-04  4.35E-03  0.15448
    756.   13.228  6.45E-06  3.69E-04  2.29E-06  1.31E-04  0.00E+00  0.00E+00  8.74E-06  5.00E-04  4.37E-03  0.19144
    758.   13.193  5.45E-06  3.13E-04  3.97E-06  2.28E-04  0.00E+00  0.00E+00  9.41E-06  5.41E-04  4.39E-03  0.33221
    760.   13.158  4.78E-06  2.76E-04  5.26E-06  3.04E-04  0.00E+00  0.00E+00  1.00E-05  5.80E-04  4.41E-03  0.44139
    762.   13.123  4.30E-06  2.50E-04  6.05E-06  3.52E-04  0.00E+00  0.00E+00  1.04E-05  6.01E-04  4.43E-03  0.50937
    764.   13.089  3.80E-06  2.22E-04  6.79E-06  3.96E-04  0.00E+00  0.00E+00  1.06E-05  6.18E-04  4.45E-03  0.57281
    766.   13.055  3.61E-06  2.12E-04  7.15E-06  4.20E-04  0.00E+00  0.00E+00  1.08E-05  6.31E-04  4.47E-03  0.60441
    768.   13.021  3.95E-06  2.33E-04  6.77E-06  3.99E-04  0.00E+00  0.00E+00  1.07E-05  6.32E-04  4.50E-03  0.57364
    770.   12.987  3.99E-06  2.37E-04  6.73E-06  3.99E-04  0.00E+00  0.00E+00  1.07E-05  6.35E-04  4.52E-03  0.57141
    772.   12.953  2.92E-06  1.74E-04  8.11E-06  4.83E-04  0.00E+00  0.00E+00  1.10E-05  6.57E-04  4.54E-03  0.69031
    774.   12.920  2.98E-06  1.78E-04  8.05E-06  4.82E-04  0.00E+00  0.00E+00  1.10E-05  6.60E-04  4.56E-03  0.68650
    776.   12.887  4.24E-06  2.55E-04  6.40E-06  3.86E-04  0.00E+00  0.00E+00  1.06E-05  6.41E-04  4.58E-03  0.54763
    778.   12.853  3.81E-06  2.31E-04  6.93E-06  4.19E-04  0.00E+00  0.00E+00  1.07E-05  6.50E-04  4.60E-03  0.59429
    780.   12.821  2.65E-06  1.61E-04  8.41E-06  5.11E-04  0.00E+00  0.00E+00  1.11E-05  6.73E-04  4.63E-03  0.72268
    782.   12.788  2.64E-06  1.61E-04  8.34E-06  5.10E-04  0.00E+00  0.00E+00  1.10E-05  6.71E-04  4.65E-03  0.71872
    784.   12.755  3.82E-06  2.35E-04  6.77E-06  4.16E-04  0.00E+00  0.00E+00  1.06E-05  6.51E-04  4.67E-03  0.58463
    786.   12.723  2.71E-06  1.68E-04  8.24E-06  5.09E-04  0.00E+00  0.00E+00  1.10E-05  6.77E-04  4.69E-03  0.71387
    788.   12.690  1.73E-06  1.07E-04  9.47E-06  5.88E-04  0.00E+00  0.00E+00  1.12E-05  6.95E-04  4.71E-03  0.82227
    790.   12.658  2.51E-06  1.57E-04  8.15E-06  5.09E-04  0.00E+00  0.00E+00  1.07E-05  6.65E-04  4.73E-03  0.70911
    792.   12.626  4.21E-06  2.64E-04  5.50E-06  3.45E-04  0.00E+00  0.00E+00  9.72E-06  6.09E-04  4.75E-03  0.48034
    794.   12.594  4.49E-06  2.83E-04  5.62E-06  3.54E-04  0.00E+00  0.00E+00  1.01E-05  6.38E-04  4.77E-03  0.49202
    796.   12.563  4.45E-06  2.82E-04  5.79E-06  3.67E-04  0.00E+00  0.00E+00  1.02E-05  6.49E-04  4.80E-03  0.50811
    798.   12.531  4.70E-06  2.99E-04  5.37E-06  3.42E-04  0.00E+00  0.00E+00  1.01E-05  6.41E-04  4.82E-03  0.47272
    800.   12.500  3.49E-06  2.24E-04  6.89E-06  4.41E-04  0.00E+00  0.00E+00  1.04E-05  6.65E-04  4.84E-03  0.60815
  iv          805
1                                             RADIANCE(WATTS/CM2-STER-XXX)
0  FREQ   WAVLEN    PATH THERMAL      SURFACE EMISSION    SURFACE REFLECTED     TOTAL RADIANCE   INTEGRAL    TOTAL
  (CM-1) (MICRN)    (CM-1)   (MICRN)    (CM-1)   (MICRN)    (CM-1)   (MICRN)    (CM-1)   (MICRN)    (CM-1)   TRANS

    802.   12.469  2.74E-06  1.76E-04  7.96E-06  5.12E-04  0.00E+00  0.00E+00  1.07E-05  6.89E-04  4.86E-03  0.70408
    804.   12.438  3.31E-06  2.14E-04  7.22E-06  4.67E-04  0.00E+00  0.00E+00  1.05E-05  6.80E-04  4.88E-03  0.64018
    806.   12.407  2.63E-06  1.71E-04  8.04E-06  5.22E-04  0.00E+00  0.00E+00  1.07E-05  6.93E-04  4.90E-03  0.71472
    808.   12.376  2.86E-06  1.87E-04  7.72E-06  5.04E-04  0.00E+00  0.00E+00  1.06E-05  6.91E-04  4.92E-03  0.68858
    810.   12.346  2.00E-06  1.31E-04  8.76E-06  5.75E-04  0.00E+00  0.00E+00  1.08E-05  7.06E-04  4.94E-03  0.78338
    812.   12.315  1.80E-06  1.19E-04  9.00E-06  5.93E-04  0.00E+00  0.00E+00  1.08E-05  7.12E-04  4.96E-03  0.80639
    814.   12.285  2.75E-06  1.82E-04  7.84E-06  5.20E-04  0.00E+00  0.00E+00  1.06E-05  7.02E-04  4.99E-03  0.70499
    816.   12.255  2.21E-06  1.47E-04  8.47E-06  5.64E-04  0.00E+00  0.00E+00  1.07E-05  7.11E-04  5.01E-03  0.76368
    818.   12.225  1.33E-06  8.89E-05  9.51E-06  6.36E-04  0.00E+00  0.00E+00  1.08E-05  7.25E-04  5.03E-03  0.85959
    820.   12.195  1.24E-06  8.37E-05  9.59E-06  6.45E-04  0.00E+00  0.00E+00  1.08E-05  7.28E-04  5.05E-03  0.86906
    822.   12.165  1.21E-06  8.18E-05  9.61E-06  6.49E-04  0.00E+00  0.00E+00  1.08E-05  7.31E-04  5.07E-03  0.87320
    824.   12.136  1.46E-06  9.91E-05  9.27E-06  6.29E-04  0.00E+00  0.00E+00  1.07E-05  7.28E-04  5.09E-03  0.84480
    826.   12.107  1.92E-06  1.31E-04  8.69E-06  5.93E-04  0.00E+00  0.00E+00  1.06E-05  7.24E-04  5.11E-03  0.79445
    828.   12.077  2.22E-06  1.52E-04  8.29E-06  5.69E-04  0.00E+00  0.00E+00  1.05E-05  7.21E-04  5.14E-03  0.76035
    830.   12.048  1.40E-06  9.68E-05  9.25E-06  6.37E-04  0.00E+00  0.00E+00  1.07E-05  7.34E-04  5.16E-03  0.85051
    832.   12.019  1.05E-06  7.27E-05  9.65E-06  6.68E-04  0.00E+00  0.00E+00  1.07E-05  7.41E-04  5.18E-03  0.89004
    834.   11.990  1.09E-06  7.59E-05  9.57E-06  6.66E-04  0.00E+00  0.00E+00  1.07E-05  7.42E-04  5.20E-03  0.88527
    836.   11.962  1.21E-06  8.42E-05  9.41E-06  6.58E-04  0.00E+00  0.00E+00  1.06E-05  7.42E-04  5.22E-03  0.87268
    838.   11.933  1.44E-06  1.01E-04  9.08E-06  6.38E-04  0.00E+00  0.00E+00  1.05E-05  7.39E-04  5.24E-03  0.84447
    840.   11.905  2.10E-06  1.48E-04  8.24E-06  5.81E-04  0.00E+00  0.00E+00  1.03E-05  7.30E-04  5.26E-03  0.76870
    842.   11.876  1.60E-06  1.13E-04  8.81E-06  6.25E-04  0.00E+00  0.00E+00  1.04E-05  7.38E-04  5.28E-03  0.82442
    844.   11.848  1.10E-06  7.82E-05  9.37E-06  6.67E-04  0.00E+00  0.00E+00  1.05E-05  7.45E-04  5.30E-03  0.87913
    846.   11.820  1.03E-06  7.39E-05  9.40E-06  6.73E-04  0.00E+00  0.00E+00  1.04E-05  7.47E-04  5.32E-03  0.88530
    848.   11.792  1.32E-06  9.51E-05  9.01E-06  6.48E-04  0.00E+00  0.00E+00  1.03E-05  7.43E-04  5.35E-03  0.85068
    850.   11.765  2.25E-06  1.63E-04  7.80E-06  5.64E-04  0.00E+00  0.00E+00  1.01E-05  7.27E-04  5.37E-03  0.73894
    852.   11.737  3.11E-06  2.26E-04  6.72E-06  4.88E-04  0.00E+00  0.00E+00  9.83E-06  7.14E-04  5.39E-03  0.63878
    854.   11.710  2.59E-06  1.89E-04  7.39E-06  5.39E-04  0.00E+00  0.00E+00  9.99E-06  7.28E-04  5.41E-03  0.70448
    856.   11.682  1.52E-06  1.11E-04  8.68E-06  6.36E-04  0.00E+00  0.00E+00  1.02E-05  7.47E-04  5.43E-03  0.83023
    858.   11.655  9.88E-07  7.28E-05  9.30E-06  6.85E-04  0.00E+00  0.00E+00  1.03E-05  7.58E-04  5.45E-03  0.89209
    860.   11.628  9.90E-07  7.32E-05  9.27E-06  6.86E-04  0.00E+00  0.00E+00  1.03E-05  7.59E-04  5.47E-03  0.89204
    862.   11.601  8.78E-07  6.52E-05  9.37E-06  6.96E-04  0.00E+00  0.00E+00  1.02E-05  7.61E-04  5.49E-03  0.90410
    864.   11.574  1.29E-06  9.59E-05  8.85E-06  6.60E-04  0.00E+00  0.00E+00  1.01E-05  7.56E-04  5.51E-03  0.85618
    866.   11.547  1.29E-06  9.65E-05  8.81E-06  6.61E-04  0.00E+00  0.00E+00  1.01E-05  7.58E-04  5.53E-03  0.85590
    868.   11.521  8.39E-07  6.32E-05  9.32E-06  7.02E-04  0.00E+00  0.00E+00  1.02E-05  7.65E-04  5.55E-03  0.90738
    870.   11.494  1.22E-06  9.22E-05  8.80E-06  6.66E-04  0.00E+00  0.00E+00  1.00E-05  7.58E-04  5.57E-03  0.85974
    872.   11.468  1.24E-06  9.46E-05  8.73E-06  6.64E-04  0.00E+00  0.00E+00  9.98E-06  7.59E-04  5.59E-03  0.85634
    874.   11.442  8.25E-07  6.30E-05  9.23E-06  7.05E-04  0.00E+00  0.00E+00  1.01E-05  7.68E-04  5.61E-03  0.90765
    876.   11.416  8.25E-07  6.33E-05  9.19E-06  7.05E-04  0.00E+00  0.00E+00  1.00E-05  7.69E-04  5.63E-03  0.90705
    878.   11.390  1.13E-06  8.71E-05  8.79E-06  6.78E-04  0.00E+00  0.00E+00  9.92E-06  7.65E-04  5.65E-03  0.87009
    880.   11.364  1.22E-06  9.42E-05  8.65E-06  6.70E-04  0.00E+00  0.00E+00  9.86E-06  7.64E-04  5.67E-03  0.85888
    882.   11.338  1.14E-06  8.85E-05  8.71E-06  6.78E-04  0.00E+00  0.00E+00  9.85E-06  7.66E-04  5.69E-03  0.86800
    884.   11.312  1.30E-06  1.02E-04  8.48E-06  6.63E-04  0.00E+00  0.00E+00  9.78E-06  7.64E-04  5.71E-03  0.84778
    886.   11.287  1.37E-06  1.07E-04  8.33E-06  6.54E-04  0.00E+00  0.00E+00  9.70E-06  7.61E-04  5.73E-03  0.83561
    888.   11.261  1.47E-06  1.16E-04  8.19E-06  6.46E-04  0.00E+00  0.00E+00  9.65E-06  7.61E-04  5.75E-03  0.82380
    890.   11.236  1.16E-06  9.21E-05  8.56E-06  6.78E-04  0.00E+00  0.00E+00  9.72E-06  7.70E-04  5.77E-03  0.86409
    892.   11.211  8.69E-07  6.91E-05  8.87E-06  7.06E-04  0.00E+00  0.00E+00  9.74E-06  7.75E-04  5.78E-03  0.89860
    894.   11.186  7.20E-07  5.75E-05  9.01E-06  7.20E-04  0.00E+00  0.00E+00  9.73E-06  7.78E-04  5.80E-03  0.91600
    896.   11.161  7.62E-07  6.12E-05  8.93E-06  7.17E-04  0.00E+00  0.00E+00  9.69E-06  7.78E-04  5.82E-03  0.91080
    898.   11.136  8.00E-07  6.45E-05  8.85E-06  7.14E-04  0.00E+00  0.00E+00  9.65E-06  7.78E-04  5.84E-03  0.90597
    900.   11.111  7.21E-07  5.84E-05  8.91E-06  7.22E-04  0.00E+00  0.00E+00  9.63E-06  7.80E-04  5.86E-03  0.91492
  iv          905
1                                             RADIANCE(WATTS/CM2-STER-XXX)
0  FREQ   WAVLEN    PATH THERMAL      SURFACE EMISSION    SURFACE REFLECTED     TOTAL RADIANCE   INTEGRAL    TOTAL
  (CM-1) (MICRN)    (CM-1)   (MICRN)    (CM-1)   (MICRN)    (CM-1)   (MICRN)    (CM-1)   (MICRN)    (CM-1)   TRANS

    902.   11.086  6.99E-07  5.68E-05  8.90E-06  7.24E-04  0.00E+00  0.00E+00  9.60E-06  7.81E-04  5.88E-03  0.91725
    904.   11.062  7.78E-07  6.36E-05  8.77E-06  7.17E-04  0.00E+00  0.00E+00  9.55E-06  7.81E-04  5.90E-03  0.90711
    906.   11.038  9.62E-07  7.90E-05  8.52E-06  7.00E-04  0.00E+00  0.00E+00  9.49E-06  7.79E-04  5.92E-03  0.88428
    908.   11.013  1.33E-06  1.10E-04  8.01E-06  6.60E-04  0.00E+00  0.00E+00  9.34E-06  7.70E-04  5.94E-03  0.83382
    910.   10.989  1.25E-06  1.04E-04  8.06E-06  6.68E-04  0.00E+00  0.00E+00  9.32E-06  7.72E-04  5.96E-03  0.84254
    912.   10.965  7.96E-07  6.62E-05  8.60E-06  7.16E-04  0.00E+00  0.00E+00  9.40E-06  7.82E-04  5.98E-03  0.90174
    914.   10.941  8.27E-07  6.91E-05  8.53E-06  7.12E-04  0.00E+00  0.00E+00  9.36E-06  7.82E-04  5.99E-03  0.89704
    916.   10.917  7.91E-07  6.64E-05  8.53E-06  7.16E-04  0.00E+00  0.00E+00  9.32E-06  7.82E-04  6.01E-03  0.90076
    918.   10.893  8.50E-07  7.16E-05  8.43E-06  7.10E-04  0.00E+00  0.00E+00  9.28E-06  7.82E-04  6.03E-03  0.89292
    920.   10.870  9.88E-07  8.36E-05  8.22E-06  6.96E-04  0.00E+00  0.00E+00  9.20E-06  7.79E-04  6.05E-03  0.87348
    922.   10.846  1.31E-06  1.11E-04  7.77E-06  6.61E-04  0.00E+00  0.00E+00  9.08E-06  7.72E-04  6.07E-03  0.82922
    924.   10.823  1.23E-06  1.05E-04  7.83E-06  6.69E-04  0.00E+00  0.00E+00  9.06E-06  7.74E-04  6.09E-03  0.83842
    926.   10.799  1.03E-06  8.79E-05  8.05E-06  6.91E-04  0.00E+00  0.00E+00  9.08E-06  7.79E-04  6.10E-03  0.86546
    928.   10.776  7.77E-07  6.69E-05  8.33E-06  7.17E-04  0.00E+00  0.00E+00  9.11E-06  7.84E-04  6.12E-03  0.89830
    930.   10.753  7.94E-07  6.87E-05  8.27E-06  7.15E-04  0.00E+00  0.00E+00  9.07E-06  7.84E-04  6.14E-03  0.89516
    932.   10.730  7.67E-07  6.67E-05  8.27E-06  7.18E-04  0.00E+00  0.00E+00  9.04E-06  7.85E-04  6.16E-03  0.89814
    934.   10.707  7.70E-07  6.72E-05  8.23E-06  7.18E-04  0.00E+00  0.00E+00  9.00E-06  7.85E-04  6.18E-03  0.89750
    936.   10.684  7.91E-07  6.93E-05  8.17E-06  7.16E-04  0.00E+00  0.00E+00  8.97E-06  7.85E-04  6.19E-03  0.89434
    938.   10.661  8.08E-07  7.11E-05  8.12E-06  7.14E-04  0.00E+00  0.00E+00  8.92E-06  7.85E-04  6.21E-03  0.89113
    940.   10.638  9.24E-07  8.16E-05  7.92E-06  7.00E-04  0.00E+00  0.00E+00  8.84E-06  7.81E-04  6.23E-03  0.87284
    942.   10.616  1.00E-06  8.89E-05  7.77E-06  6.89E-04  0.00E+00  0.00E+00  8.77E-06  7.78E-04  6.25E-03  0.85919
    944.   10.593  9.79E-07  8.72E-05  7.77E-06  6.92E-04  0.00E+00  0.00E+00  8.75E-06  7.80E-04  6.27E-03  0.86254
    946.   10.571  1.15E-06  1.03E-04  7.51E-06  6.72E-04  0.00E+00  0.00E+00  8.66E-06  7.75E-04  6.28E-03  0.83674
    948.   10.549  1.45E-06  1.30E-04  7.07E-06  6.35E-04  0.00E+00  0.00E+00  8.51E-06  7.65E-04  6.30E-03  0.79027
    950.   10.526  1.05E-06  9.52E-05  7.55E-06  6.81E-04  0.00E+00  0.00E+00  8.60E-06  7.77E-04  6.32E-03  0.84772
    952.   10.504  9.35E-07  8.47E-05  7.70E-06  6.98E-04  0.00E+00  0.00E+00  8.63E-06  7.82E-04  6.33E-03  0.86728
    954.   10.482  1.11E-06  1.01E-04  7.45E-06  6.78E-04  0.00E+00  0.00E+00  8.55E-06  7.78E-04  6.35E-03  0.84240
    956.   10.460  1.01E-06  9.19E-05  7.54E-06  6.89E-04  0.00E+00  0.00E+00  8.54E-06  7.81E-04  6.37E-03  0.85579
    958.   10.438  7.68E-07  7.05E-05  7.83E-06  7.18E-04  0.00E+00  0.00E+00  8.59E-06  7.89E-04  6.39E-03  0.89190
    960.   10.417  6.91E-07  6.37E-05  7.92E-06  7.30E-04  0.00E+00  0.00E+00  8.61E-06  7.93E-04  6.40E-03  0.90567
    962.   10.395  6.01E-07  5.56E-05  7.99E-06  7.39E-04  0.00E+00  0.00E+00  8.59E-06  7.95E-04  6.42E-03  0.91710
    964.   10.373  6.78E-07  6.30E-05  7.82E-06  7.27E-04  0.00E+00  0.00E+00  8.50E-06  7.90E-04  6.44E-03  0.90184
    966.   10.352  8.80E-07  8.21E-05  7.52E-06  7.01E-04  0.00E+00  0.00E+00  8.40E-06  7.84E-04  6.45E-03  0.86975
    968.   10.331  9.11E-07  8.54E-05  7.42E-06  6.95E-04  0.00E+00  0.00E+00  8.33E-06  7.81E-04  6.47E-03  0.86187
    970.   10.309  1.02E-06  9.56E-05  7.24E-06  6.81E-04  0.00E+00  0.00E+00  8.26E-06  7.77E-04  6.49E-03  0.84448
    972.   10.288  1.28E-06  1.21E-04  6.86E-06  6.48E-04  0.00E+00  0.00E+00  8.14E-06  7.69E-04  6.50E-03  0.80281
    974.   10.267  1.23E-06  1.16E-04  6.91E-06  6.55E-04  0.00E+00  0.00E+00  8.13E-06  7.72E-04  6.52E-03  0.81147
    976.   10.246  1.30E-06  1.24E-04  6.76E-06  6.44E-04  0.00E+00  0.00E+00  8.06E-06  7.67E-04  6.54E-03  0.79715
    978.   10.225  1.01E-06  9.66E-05  7.10E-06  6.79E-04  0.00E+00  0.00E+00  8.11E-06  7.75E-04  6.55E-03  0.84053
    980.   10.204  7.94E-07  7.62E-05  7.33E-06  7.04E-04  0.00E+00  0.00E+00  8.13E-06  7.81E-04  6.57E-03  0.87193
    982.   10.183  8.08E-07  7.79E-05  7.27E-06  7.01E-04  0.00E+00  0.00E+00  8.07E-06  7.79E-04  6.58E-03  0.86735
    984.   10.163  7.30E-07  7.07E-05  7.33E-06  7.10E-04  0.00E+00  0.00E+00  8.06E-06  7.80E-04  6.60E-03  0.87831
    986.   10.142  5.94E-07  5.77E-05  7.44E-06  7.23E-04  0.00E+00  0.00E+00  8.03E-06  7.81E-04  6.62E-03  0.89508
    988.   10.121  5.72E-07  5.58E-05  7.38E-06  7.20E-04  0.00E+00  0.00E+00  7.95E-06  7.76E-04  6.63E-03  0.89143
    990.   10.101  5.75E-07  5.64E-05  7.29E-06  7.14E-04  0.00E+00  0.00E+00  7.86E-06  7.71E-04  6.65E-03  0.88379
    992.   10.081  5.71E-07  5.62E-05  7.17E-06  7.06E-04  0.00E+00  0.00E+00  7.74E-06  7.62E-04  6.66E-03  0.87291
    994.   10.060  5.85E-07  5.78E-05  7.03E-06  6.95E-04  0.00E+00  0.00E+00  7.62E-06  7.53E-04  6.68E-03  0.85978
    996.   10.040  6.26E-07  6.21E-05  6.83E-06  6.77E-04  0.00E+00  0.00E+00  7.45E-06  7.39E-04  6.69E-03  0.83787
    998.   10.020  7.88E-07  7.85E-05  6.45E-06  6.42E-04  0.00E+00  0.00E+00  7.24E-06  7.21E-04  6.71E-03  0.79470
   1000.   10.000  9.17E-07  9.17E-05  6.12E-06  6.12E-04  0.00E+00  0.00E+00  7.04E-06  7.04E-04  6.72E-03  0.75738
  iv         1005
1                                             RADIANCE(WATTS/CM2-STER-XXX)
0  FREQ   WAVLEN    PATH THERMAL      SURFACE EMISSION    SURFACE REFLECTED     TOTAL RADIANCE   INTEGRAL    TOTAL
  (CM-1) (MICRN)    (CM-1)   (MICRN)    (CM-1)   (MICRN)    (CM-1)   (MICRN)    (CM-1)   (MICRN)    (CM-1)   TRANS

   1002.    9.980  8.84E-07  8.88E-05  5.93E-06  5.96E-04  0.00E+00  0.00E+00  6.82E-06  6.84E-04  6.74E-03  0.73673
   1004.    9.960  9.69E-07  9.77E-05  5.63E-06  5.67E-04  0.00E+00  0.00E+00  6.60E-06  6.65E-04  6.75E-03  0.70170
   1006.    9.940  9.89E-07  1.00E-04  5.33E-06  5.39E-04  0.00E+00  0.00E+00  6.32E-06  6.39E-04  6.76E-03  0.66689
   1008.    9.921  1.04E-06  1.06E-04  5.11E-06  5.19E-04  0.00E+00  0.00E+00  6.15E-06  6.25E-04  6.77E-03  0.64209
   1010.    9.901  1.29E-06  1.31E-04  4.58E-06  4.67E-04  0.00E+00  0.00E+00  5.87E-06  5.99E-04  6.79E-03  0.57820
   1012.    9.881  1.36E-06  1.39E-04  4.21E-06  4.31E-04  0.00E+00  0.00E+00  5.57E-06  5.70E-04  6.80E-03  0.53375
   1014.    9.862  1.43E-06  1.47E-04  3.91E-06  4.02E-04  0.00E+00  0.00E+00  5.34E-06  5.49E-04  6.81E-03  0.49766
   1016.    9.843  1.40E-06  1.44E-04  3.79E-06  3.91E-04  0.00E+00  0.00E+00  5.19E-06  5.35E-04  6.82E-03  0.48439
   1018.    9.823  1.47E-06  1.52E-04  3.44E-06  3.56E-04  0.00E+00  0.00E+00  4.90E-06  5.08E-04  6.83E-03  0.44087
   1020.    9.804  1.40E-06  1.46E-04  3.31E-06  3.45E-04  0.00E+00  0.00E+00  4.71E-06  4.90E-04  6.84E-03  0.42705
   1022.    9.785  1.39E-06  1.45E-04  3.16E-06  3.30E-04  0.00E+00  0.00E+00  4.55E-06  4.75E-04  6.85E-03  0.40921
   1024.    9.766  1.39E-06  1.46E-04  3.06E-06  3.21E-04  0.00E+00  0.00E+00  4.45E-06  4.66E-04  6.86E-03  0.39752
   1026.    9.747  1.41E-06  1.48E-04  3.03E-06  3.18E-04  0.00E+00  0.00E+00  4.44E-06  4.67E-04  6.86E-03  0.39472
   1028.    9.728  1.60E-06  1.69E-04  2.71E-06  2.87E-04  0.00E+00  0.00E+00  4.31E-06  4.56E-04  6.87E-03  0.35521
   1030.    9.709  1.60E-06  1.70E-04  2.61E-06  2.77E-04  0.00E+00  0.00E+00  4.21E-06  4.47E-04  6.88E-03  0.34337
   1032.    9.690  1.45E-06  1.54E-04  2.82E-06  3.00E-04  0.00E+00  0.00E+00  4.27E-06  4.55E-04  6.89E-03  0.37268
   1034.    9.671  1.41E-06  1.51E-04  2.78E-06  2.97E-04  0.00E+00  0.00E+00  4.20E-06  4.49E-04  6.90E-03  0.36915
   1036.    9.653  1.47E-06  1.57E-04  2.55E-06  2.74E-04  0.00E+00  0.00E+00  4.02E-06  4.31E-04  6.91E-03  0.34034
   1038.    9.634  1.57E-06  1.69E-04  2.23E-06  2.41E-04  0.00E+00  0.00E+00  3.80E-06  4.10E-04  6.91E-03  0.29888
   1040.    9.615  1.57E-06  1.69E-04  2.16E-06  2.34E-04  0.00E+00  0.00E+00  3.73E-06  4.03E-04  6.92E-03  0.29033
   1042.    9.597  1.24E-06  1.35E-04  3.61E-06  3.92E-04  0.00E+00  0.00E+00  4.86E-06  5.27E-04  6.93E-03  0.48820
   1044.    9.579  1.01E-06  1.10E-04  4.60E-06  5.02E-04  0.00E+00  0.00E+00  5.61E-06  6.12E-04  6.94E-03  0.62364
   1046.    9.560  1.22E-06  1.34E-04  3.42E-06  3.74E-04  0.00E+00  0.00E+00  4.64E-06  5.08E-04  6.95E-03  0.46510
   1048.    9.542  1.51E-06  1.66E-04  2.32E-06  2.54E-04  0.00E+00  0.00E+00  3.83E-06  4.20E-04  6.96E-03  0.31658
   1050.    9.524  1.66E-06  1.83E-04  1.86E-06  2.05E-04  0.00E+00  0.00E+00  3.52E-06  3.88E-04  6.97E-03  0.25484
   1052.    9.506  1.64E-06  1.81E-04  1.75E-06  1.94E-04  0.00E+00  0.00E+00  3.39E-06  3.75E-04  6.97E-03  0.24150
   1054.    9.488  1.63E-06  1.81E-04  1.68E-06  1.87E-04  0.00E+00  0.00E+00  3.31E-06  3.67E-04  6.98E-03  0.23251
   1056.    9.470  1.65E-06  1.85E-04  1.65E-06  1.85E-04  0.00E+00  0.00E+00  3.31E-06  3.69E-04  6.99E-03  0.23015
   1058.    9.452  1.57E-06  1.76E-04  2.02E-06  2.26E-04  0.00E+00  0.00E+00  3.59E-06  4.02E-04  6.99E-03  0.28160
   1060.    9.434  1.50E-06  1.68E-04  2.44E-06  2.74E-04  0.00E+00  0.00E+00  3.93E-06  4.42E-04  7.00E-03  0.34198
   1062.    9.416  1.36E-06  1.54E-04  2.95E-06  3.33E-04  0.00E+00  0.00E+00  4.31E-06  4.86E-04  7.01E-03  0.41564
   1064.    9.398  1.29E-06  1.45E-04  3.61E-06  4.09E-04  0.00E+00  0.00E+00  4.90E-06  5.54E-04  7.02E-03  0.51100
   1066.    9.381  1.46E-06  1.66E-04  3.97E-06  4.51E-04  0.00E+00  0.00E+00  5.43E-06  6.17E-04  7.03E-03  0.56366
   1068.    9.363  1.11E-06  1.27E-04  4.80E-06  5.47E-04  0.00E+00  0.00E+00  5.91E-06  6.74E-04  7.04E-03  0.68535
   1070.    9.346  8.23E-07  9.43E-05  5.46E-06  6.25E-04  0.00E+00  0.00E+00  6.28E-06  7.19E-04  7.05E-03  0.78262
   1072.    9.328  1.00E-06  1.15E-04  5.39E-06  6.20E-04  0.00E+00  0.00E+00  6.39E-06  7.35E-04  7.07E-03  0.77674
   1074.    9.311  1.38E-06  1.59E-04  4.88E-06  5.62E-04  0.00E+00  0.00E+00  6.25E-06  7.21E-04  7.08E-03  0.70521
   1076.    9.294  1.11E-06  1.29E-04  5.16E-06  5.97E-04  0.00E+00  0.00E+00  6.27E-06  7.26E-04  7.09E-03  0.74983
   1078.    9.276  8.08E-07  9.39E-05  5.58E-06  6.49E-04  0.00E+00  0.00E+00  6.39E-06  7.43E-04  7.11E-03  0.81497
   1080.    9.259  8.86E-07  1.03E-04  5.39E-06  6.29E-04  0.00E+00  0.00E+00  6.28E-06  7.32E-04  7.12E-03  0.79040
   1082.    9.242  8.31E-07  9.73E-05  5.46E-06  6.39E-04  0.00E+00  0.00E+00  6.29E-06  7.36E-04  7.13E-03  0.80333
   1084.    9.225  7.17E-07  8.42E-05  5.66E-06  6.65E-04  0.00E+00  0.00E+00  6.38E-06  7.50E-04  7.14E-03  0.83752
   1086.    9.208  7.27E-07  8.57E-05  5.60E-06  6.61E-04  0.00E+00  0.00E+00  6.33E-06  7.46E-04  7.16E-03  0.83236
   1088.    9.191  6.11E-07  7.23E-05  5.72E-06  6.78E-04  0.00E+00  0.00E+00  6.33E-06  7.50E-04  7.17E-03  0.85425
   1090.    9.174  8.46E-07  1.00E-04  5.44E-06  6.46E-04  0.00E+00  0.00E+00  6.28E-06  7.46E-04  7.18E-03  0.81472
   1092.    9.158  8.05E-07  9.60E-05  5.48E-06  6.54E-04  0.00E+00  0.00E+00  6.29E-06  7.50E-04  7.19E-03  0.82583
   1094.    9.141  3.79E-07  4.54E-05  5.98E-06  7.16E-04  0.00E+00  0.00E+00  6.36E-06  7.61E-04  7.21E-03  0.90504
   1096.    9.124  3.14E-07  3.78E-05  6.06E-06  7.27E-04  0.00E+00  0.00E+00  6.37E-06  7.65E-04  7.22E-03  0.92028
   1098.    9.107  4.98E-07  6.01E-05  5.80E-06  6.99E-04  0.00E+00  0.00E+00  6.30E-06  7.59E-04  7.23E-03  0.88533
   1100.    9.091  1.14E-06  1.38E-04  4.92E-06  5.95E-04  0.00E+00  0.00E+00  6.07E-06  7.34E-04  7.24E-03  0.75446
  iv         1105
1                                             RADIANCE(WATTS/CM2-STER-XXX)
0  FREQ   WAVLEN    PATH THERMAL      SURFACE EMISSION    SURFACE REFLECTED     TOTAL RADIANCE   INTEGRAL    TOTAL
  (CM-1) (MICRN)    (CM-1)   (MICRN)    (CM-1)   (MICRN)    (CM-1)   (MICRN)    (CM-1)   (MICRN)    (CM-1)   TRANS

   1102.    9.074  8.70E-07  1.06E-04  5.25E-06  6.37E-04  0.00E+00  0.00E+00  6.12E-06  7.43E-04  7.26E-03  0.80881
   1104.    9.058  3.92E-07  4.78E-05  5.86E-06  7.15E-04  0.00E+00  0.00E+00  6.26E-06  7.63E-04  7.27E-03  0.90741
   1106.    9.042  9.00E-07  1.10E-04  5.17E-06  6.33E-04  0.00E+00  0.00E+00  6.07E-06  7.43E-04  7.28E-03  0.80399
   1108.    9.025  8.33E-07  1.02E-04  5.23E-06  6.42E-04  0.00E+00  0.00E+00  6.06E-06  7.44E-04  7.29E-03  0.81645
   1110.    9.009  6.21E-07  7.66E-05  5.47E-06  6.74E-04  0.00E+00  0.00E+00  6.09E-06  7.51E-04  7.30E-03  0.85837
   1112.    8.993  1.00E-06  1.24E-04  4.90E-06  6.06E-04  0.00E+00  0.00E+00  5.91E-06  7.30E-04  7.32E-03  0.77272
   1114.    8.977  5.05E-07  6.27E-05  5.53E-06  6.86E-04  0.00E+00  0.00E+00  6.04E-06  7.49E-04  7.33E-03  0.87586
   1116.    8.961  3.24E-07  4.03E-05  5.75E-06  7.16E-04  0.00E+00  0.00E+00  6.07E-06  7.56E-04  7.34E-03  0.91380
   1118.    8.945  4.31E-07  5.39E-05  5.56E-06  6.95E-04  0.00E+00  0.00E+00  5.99E-06  7.49E-04  7.35E-03  0.88833
   1120.    8.929  9.84E-07  1.23E-04  4.77E-06  5.98E-04  0.00E+00  0.00E+00  5.75E-06  7.21E-04  7.36E-03  0.76494
   1122.    8.913  9.97E-07  1.26E-04  4.71E-06  5.93E-04  0.00E+00  0.00E+00  5.71E-06  7.19E-04  7.38E-03  0.76037
   1124.    8.897  3.56E-07  4.49E-05  5.53E-06  6.99E-04  0.00E+00  0.00E+00  5.89E-06  7.44E-04  7.39E-03  0.89684
   1126.    8.881  2.76E-07  3.50E-05  5.61E-06  7.11E-04  0.00E+00  0.00E+00  5.89E-06  7.46E-04  7.40E-03  0.91334
   1128.    8.865  2.62E-07  3.34E-05  5.62E-06  7.15E-04  0.00E+00  0.00E+00  5.88E-06  7.48E-04  7.41E-03  0.91904
   1130.    8.850  2.85E-07  3.65E-05  5.57E-06  7.11E-04  0.00E+00  0.00E+00  5.86E-06  7.48E-04  7.42E-03  0.91551
   1132.    8.834  3.47E-07  4.45E-05  5.49E-06  7.03E-04  0.00E+00  0.00E+00  5.84E-06  7.48E-04  7.43E-03  0.90632
   1134.    8.818  1.08E-06  1.39E-04  4.48E-06  5.76E-04  0.00E+00  0.00E+00  5.56E-06  7.15E-04  7.45E-03  0.74219
   1136.    8.803  2.14E-06  2.77E-04  2.89E-06  3.74E-04  0.00E+00  0.00E+00  5.04E-06  6.50E-04  7.46E-03  0.48226
   1138.    8.787  1.29E-06  1.67E-04  4.12E-06  5.34E-04  0.00E+00  0.00E+00  5.42E-06  7.01E-04  7.47E-03  0.69115
   1140.    8.772  3.90E-07  5.07E-05  5.39E-06  7.00E-04  0.00E+00  0.00E+00  5.78E-06  7.51E-04  7.48E-03  0.90638
   1142.    8.757  3.25E-07  4.23E-05  5.44E-06  7.09E-04  0.00E+00  0.00E+00  5.76E-06  7.52E-04  7.49E-03  0.91924
   1144.    8.741  2.63E-07  3.44E-05  5.48E-06  7.17E-04  0.00E+00  0.00E+00  5.74E-06  7.52E-04  7.50E-03  0.93079
   1146.    8.726  2.60E-07  3.41E-05  5.46E-06  7.17E-04  0.00E+00  0.00E+00  5.72E-06  7.51E-04  7.51E-03  0.93171
   1148.    8.711  7.76E-07  1.02E-04  4.73E-06  6.24E-04  0.00E+00  0.00E+00  5.51E-06  7.26E-04  7.52E-03  0.81118
   1150.    8.696  1.17E-06  1.54E-04  4.20E-06  5.56E-04  0.00E+00  0.00E+00  5.37E-06  7.10E-04  7.53E-03  0.72404
   1152.    8.681  1.23E-06  1.63E-04  4.11E-06  5.45E-04  0.00E+00  0.00E+00  5.34E-06  7.08E-04  7.55E-03  0.71151
   1154.    8.666  6.37E-07  8.48E-05  4.87E-06  6.49E-04  0.00E+00  0.00E+00  5.51E-06  7.34E-04  7.56E-03  0.84810
   1156.    8.651  2.56E-07  3.43E-05  5.34E-06  7.13E-04  0.00E+00  0.00E+00  5.59E-06  7.47E-04  7.57E-03  0.93284
   1158.    8.636  2.31E-07  3.10E-05  5.34E-06  7.16E-04  0.00E+00  0.00E+00  5.57E-06  7.47E-04  7.58E-03  0.93830
   1160.    8.621  2.50E-07  3.36E-05  5.29E-06  7.12E-04  0.00E+00  0.00E+00  5.54E-06  7.46E-04  7.59E-03  0.93365
   1162.    8.606  3.07E-07  4.15E-05  5.20E-06  7.02E-04  0.00E+00  0.00E+00  5.51E-06  7.44E-04  7.60E-03  0.92225
   1164.    8.591  1.04E-06  1.41E-04  4.16E-06  5.64E-04  0.00E+00  0.00E+00  5.20E-06  7.05E-04  7.61E-03  0.74141
   1166.    8.576  1.32E-06  1.79E-04  3.77E-06  5.12E-04  0.00E+00  0.00E+00  5.09E-06  6.92E-04  7.62E-03  0.67491
   1168.    8.562  4.95E-07  6.75E-05  4.89E-06  6.68E-04  0.00E+00  0.00E+00  5.39E-06  7.35E-04  7.63E-03  0.88076
   1170.    8.547  3.87E-07  5.30E-05  5.02E-06  6.87E-04  0.00E+00  0.00E+00  5.40E-06  7.40E-04  7.64E-03  0.90679
   1172.    8.532  8.85E-07  1.22E-04  4.35E-06  5.97E-04  0.00E+00  0.00E+00  5.23E-06  7.18E-04  7.65E-03  0.78897
   1174.    8.518  2.12E-06  2.92E-04  2.47E-06  3.41E-04  0.00E+00  0.00E+00  4.59E-06  6.33E-04  7.66E-03  0.45123
   1176.    8.503  1.55E-06  2.14E-04  3.22E-06  4.46E-04  0.00E+00  0.00E+00  4.77E-06  6.60E-04  7.67E-03  0.59235
   1178.    8.489  5.47E-07  7.59E-05  4.73E-06  6.56E-04  0.00E+00  0.00E+00  5.27E-06  7.32E-04  7.68E-03  0.87165
   1180.    8.475  4.82E-07  6.71E-05  4.77E-06  6.65E-04  0.00E+00  0.00E+00  5.25E-06  7.32E-04  7.69E-03  0.88410
   1182.    8.460  4.31E-07  6.02E-05  4.82E-06  6.73E-04  0.00E+00  0.00E+00  5.25E-06  7.33E-04  7.70E-03  0.89659
   1184.    8.446  5.26E-07  7.38E-05  4.69E-06  6.57E-04  0.00E+00  0.00E+00  5.21E-06  7.31E-04  7.71E-03  0.87679
   1186.    8.432  1.45E-06  2.05E-04  3.27E-06  4.60E-04  0.00E+00  0.00E+00  4.72E-06  6.64E-04  7.72E-03  0.61359
   1188.    8.418  1.78E-06  2.52E-04  2.82E-06  3.98E-04  0.00E+00  0.00E+00  4.61E-06  6.50E-04  7.73E-03  0.53375
   1190.    8.403  8.17E-07  1.16E-04  4.23E-06  5.98E-04  0.00E+00  0.00E+00  5.04E-06  7.14E-04  7.74E-03  0.80254
   1192.    8.389  5.13E-07  7.29E-05  4.57E-06  6.50E-04  0.00E+00  0.00E+00  5.09E-06  7.23E-04  7.75E-03  0.87303
   1194.    8.375  4.68E-07  6.67E-05  4.62E-06  6.59E-04  0.00E+00  0.00E+00  5.09E-06  7.25E-04  7.76E-03  0.88592
   1196.    8.361  7.66E-07  1.10E-04  4.14E-06  5.93E-04  0.00E+00  0.00E+00  4.91E-06  7.03E-04  7.77E-03  0.79843
   1198.    8.347  1.53E-06  2.20E-04  2.99E-06  4.29E-04  0.00E+00  0.00E+00  4.52E-06  6.49E-04  7.78E-03  0.57830
   1200.    8.333  1.00E-06  1.44E-04  3.79E-06  5.46E-04  0.00E+00  0.00E+00  4.79E-06  6.90E-04  7.79E-03  0.73864
  iv         1205
1                                             RADIANCE(WATTS/CM2-STER-XXX)
0  FREQ   WAVLEN    PATH THERMAL      SURFACE EMISSION    SURFACE REFLECTED     TOTAL RADIANCE   INTEGRAL    TOTAL
  (CM-1) (MICRN)    (CM-1)   (MICRN)    (CM-1)   (MICRN)    (CM-1)   (MICRN)    (CM-1)   (MICRN)    (CM-1)   TRANS

   1202.    8.319  3.59E-07  5.19E-05  4.64E-06  6.70E-04  0.00E+00  0.00E+00  5.00E-06  7.22E-04  7.80E-03  0.90786
   1204.    8.306  3.82E-07  5.53E-05  4.59E-06  6.65E-04  0.00E+00  0.00E+00  4.97E-06  7.21E-04  7.81E-03  0.90200
   1206.    8.292  5.91E-07  8.60E-05  4.30E-06  6.26E-04  0.00E+00  0.00E+00  4.90E-06  7.12E-04  7.82E-03  0.85055
   1208.    8.278  6.10E-07  8.90E-05  4.26E-06  6.22E-04  0.00E+00  0.00E+00  4.87E-06  7.11E-04  7.83E-03  0.84632
   1210.    8.264  1.34E-06  1.96E-04  3.05E-06  4.46E-04  0.00E+00  0.00E+00  4.39E-06  6.43E-04  7.84E-03  0.60735
   1212.    8.251  2.27E-06  3.34E-04  1.59E-06  2.33E-04  0.00E+00  0.00E+00  3.86E-06  5.67E-04  7.85E-03  0.31795
   1214.    8.237  1.58E-06  2.32E-04  2.82E-06  4.16E-04  0.00E+00  0.00E+00  4.40E-06  6.48E-04  7.86E-03  0.56969
   1216.    8.224  9.09E-07  1.34E-04  3.74E-06  5.53E-04  0.00E+00  0.00E+00  4.65E-06  6.87E-04  7.87E-03  0.75768
   1218.    8.210  1.44E-06  2.14E-04  2.85E-06  4.23E-04  0.00E+00  0.00E+00  4.30E-06  6.38E-04  7.87E-03  0.58081
   1220.    8.197  1.59E-06  2.37E-04  2.56E-06  3.81E-04  0.00E+00  0.00E+00  4.15E-06  6.18E-04  7.88E-03  0.52418
   1222.    8.183  1.23E-06  1.84E-04  3.12E-06  4.67E-04  0.00E+00  0.00E+00  4.36E-06  6.51E-04  7.89E-03  0.64273
   1224.    8.170  1.79E-06  2.68E-04  2.15E-06  3.22E-04  0.00E+00  0.00E+00  3.94E-06  5.90E-04  7.90E-03  0.44353
   1226.    8.157  1.99E-06  2.99E-04  1.83E-06  2.75E-04  0.00E+00  0.00E+00  3.82E-06  5.74E-04  7.91E-03  0.38104
   1228.    8.143  1.08E-06  1.64E-04  3.21E-06  4.85E-04  0.00E+00  0.00E+00  4.30E-06  6.48E-04  7.92E-03  0.67161
   1230.    8.130  7.04E-07  1.07E-04  3.64E-06  5.51E-04  0.00E+00  0.00E+00  4.34E-06  6.57E-04  7.92E-03  0.76453
   1232.    8.117  4.41E-07  6.69E-05  4.09E-06  6.21E-04  0.00E+00  0.00E+00  4.53E-06  6.88E-04  7.93E-03  0.86349
   1234.    8.104  4.93E-07  7.51E-05  3.97E-06  6.05E-04  0.00E+00  0.00E+00  4.47E-06  6.80E-04  7.94E-03  0.84261
   1236.    8.091  9.57E-07  1.46E-04  3.10E-06  4.73E-04  0.00E+00  0.00E+00  4.06E-06  6.20E-04  7.95E-03  0.66037
   1238.    8.078  1.32E-06  2.02E-04  2.60E-06  3.98E-04  0.00E+00  0.00E+00  3.92E-06  6.00E-04  7.96E-03  0.55627
   1240.    8.065  1.32E-06  2.04E-04  2.66E-06  4.09E-04  0.00E+00  0.00E+00  3.98E-06  6.12E-04  7.97E-03  0.57267
   1242.    8.052  1.55E-06  2.39E-04  2.12E-06  3.26E-04  0.00E+00  0.00E+00  3.67E-06  5.65E-04  7.97E-03  0.45766
   1244.    8.039  2.13E-06  3.29E-04  1.02E-06  1.57E-04  0.00E+00  0.00E+00  3.14E-06  4.86E-04  7.98E-03  0.22091
   1246.    8.026  1.65E-06  2.56E-04  1.73E-06  2.69E-04  0.00E+00  0.00E+00  3.38E-06  5.25E-04  7.99E-03  0.37891
   1248.    8.013  1.22E-06  1.89E-04  2.38E-06  3.70E-04  0.00E+00  0.00E+00  3.59E-06  5.60E-04  7.99E-03  0.52275
   1250.    8.000  1.21E-06  1.89E-04  2.53E-06  3.96E-04  0.00E+00  0.00E+00  3.75E-06  5.85E-04  8.00E-03  0.55985
   1252.    7.987  1.43E-06  2.25E-04  2.20E-06  3.45E-04  0.00E+00  0.00E+00  3.64E-06  5.70E-04  8.01E-03  0.48942
   1254.    7.974  1.42E-06  2.23E-04  1.97E-06  3.10E-04  0.00E+00  0.00E+00  3.39E-06  5.33E-04  8.01E-03  0.44061
   1256.    7.962  1.36E-06  2.14E-04  2.31E-06  3.65E-04  0.00E+00  0.00E+00  3.67E-06  5.79E-04  8.02E-03  0.51915
   1258.    7.949  1.82E-06  2.87E-04  1.56E-06  2.47E-04  0.00E+00  0.00E+00  3.38E-06  5.34E-04  8.03E-03  0.35129
   1260.    7.937  2.01E-06  3.19E-04  4.45E-07  7.07E-05  0.00E+00  0.00E+00  2.46E-06  3.90E-04  8.03E-03  0.10075
   1262.    7.924  1.87E-06  2.98E-04  7.94E-07  1.26E-04  0.00E+00  0.00E+00  2.67E-06  4.25E-04  8.04E-03  0.18137
   1264.    7.911  2.00E-06  3.19E-04  9.61E-07  1.54E-04  0.00E+00  0.00E+00  2.96E-06  4.73E-04  8.05E-03  0.22014
   1266.    7.899  2.23E-06  3.57E-04  3.82E-07  6.12E-05  0.00E+00  0.00E+00  2.61E-06  4.18E-04  8.05E-03  0.08780
   1268.    7.886  2.10E-06  3.37E-04  9.73E-08  1.56E-05  0.00E+00  0.00E+00  2.19E-06  3.53E-04  8.05E-03  0.02248
   1270.    7.874  1.97E-06  3.17E-04  2.85E-08  4.60E-06  0.00E+00  0.00E+00  1.99E-06  3.22E-04  8.06E-03  0.00663
   1272.    7.862  1.96E-06  3.18E-04  2.99E-07  4.84E-05  0.00E+00  0.00E+00  2.26E-06  3.66E-04  8.06E-03  0.07033
   1274.    7.849  1.80E-06  2.93E-04  1.21E-06  1.96E-04  0.00E+00  0.00E+00  3.01E-06  4.89E-04  8.07E-03  0.28466
   1276.    7.837  1.28E-06  2.08E-04  1.89E-06  3.08E-04  0.00E+00  0.00E+00  3.17E-06  5.15E-04  8.08E-03  0.44707
   1278.    7.825  1.21E-06  1.97E-04  2.22E-06  3.62E-04  0.00E+00  0.00E+00  3.42E-06  5.59E-04  8.08E-03  0.52707
   1280.    7.813  1.80E-06  2.96E-04  1.37E-06  2.24E-04  0.00E+00  0.00E+00  3.17E-06  5.20E-04  8.09E-03  0.32626
   1282.    7.800  1.82E-06  3.00E-04  7.85E-07  1.29E-04  0.00E+00  0.00E+00  2.61E-06  4.29E-04  8.09E-03  0.18867
   1284.    7.788  1.84E-06  3.03E-04  8.90E-07  1.47E-04  0.00E+00  0.00E+00  2.73E-06  4.50E-04  8.10E-03  0.21522
   1286.    7.776  1.99E-06  3.30E-04  7.05E-07  1.17E-04  0.00E+00  0.00E+00  2.70E-06  4.46E-04  8.10E-03  0.17089
   1288.    7.764  1.83E-06  3.04E-04  2.23E-07  3.70E-05  0.00E+00  0.00E+00  2.05E-06  3.41E-04  8.11E-03  0.05454
   1290.    7.752  2.02E-06  3.36E-04  5.49E-07  9.13E-05  0.00E+00  0.00E+00  2.57E-06  4.28E-04  8.11E-03  0.13503
   1292.    7.740  1.88E-06  3.13E-04  1.01E-06  1.68E-04  0.00E+00  0.00E+00  2.88E-06  4.82E-04  8.12E-03  0.24894
   1294.    7.728  1.65E-06  2.76E-04  9.07E-07  1.52E-04  0.00E+00  0.00E+00  2.55E-06  4.28E-04  8.12E-03  0.22482
   1296.    7.716  1.77E-06  2.97E-04  4.15E-07  6.97E-05  0.00E+00  0.00E+00  2.18E-06  3.66E-04  8.13E-03  0.10334
   1298.    7.704  1.52E-06  2.57E-04  7.67E-07  1.29E-04  0.00E+00  0.00E+00  2.29E-06  3.86E-04  8.13E-03  0.19266
   1300.    7.692  1.31E-06  2.22E-04  1.01E-06  1.71E-04  0.00E+00  0.00E+00  2.33E-06  3.93E-04  8.14E-03  0.25462
  iv         1305
1                                             RADIANCE(WATTS/CM2-STER-XXX)
0  FREQ   WAVLEN    PATH THERMAL      SURFACE EMISSION    SURFACE REFLECTED     TOTAL RADIANCE   INTEGRAL    TOTAL
  (CM-1) (MICRN)    (CM-1)   (MICRN)    (CM-1)   (MICRN)    (CM-1)   (MICRN)    (CM-1)   (MICRN)    (CM-1)   TRANS

   1302.    7.680  1.25E-06  2.11E-04  4.97E-07  8.43E-05  0.00E+00  0.00E+00  1.75E-06  2.96E-04  8.14E-03  0.12592
   1304.    7.669  1.01E-06  1.72E-04  1.44E-07  2.45E-05  0.00E+00  0.00E+00  1.15E-06  1.96E-04  8.14E-03  0.03658
   1306.    7.657  1.20E-06  2.04E-04  1.02E-07  1.73E-05  0.00E+00  0.00E+00  1.30E-06  2.22E-04  8.15E-03  0.02608
   1308.    7.645  1.93E-06  3.30E-04  1.79E-07  3.07E-05  0.00E+00  0.00E+00  2.11E-06  3.61E-04  8.15E-03  0.04627
   1310.    7.634  2.14E-06  3.67E-04  3.02E-07  5.18E-05  0.00E+00  0.00E+00  2.44E-06  4.19E-04  8.16E-03  0.07828
   1312.    7.622  1.78E-06  3.06E-04  1.36E-07  2.34E-05  0.00E+00  0.00E+00  1.92E-06  3.30E-04  8.16E-03  0.03532
   1314.    7.610  1.65E-06  2.84E-04  8.69E-10  1.50E-07  0.00E+00  0.00E+00  1.65E-06  2.85E-04  8.16E-03  0.00023
   1316.    7.599  1.66E-06  2.88E-04  7.48E-10  1.30E-07  0.00E+00  0.00E+00  1.66E-06  2.88E-04  8.17E-03  0.00020
   1318.    7.587  1.45E-06  2.52E-04  1.45E-10  2.52E-08  0.00E+00  0.00E+00  1.45E-06  2.52E-04  8.17E-03  0.00004
   1320.    7.576  1.49E-06  2.60E-04  1.30E-08  2.26E-06  0.00E+00  0.00E+00  1.51E-06  2.63E-04  8.17E-03  0.00347
   1322.    7.564  1.78E-06  3.11E-04  8.83E-08  1.54E-05  0.00E+00  0.00E+00  1.87E-06  3.27E-04  8.18E-03  0.02368
   1324.    7.553  2.05E-06  3.60E-04  3.62E-07  6.35E-05  0.00E+00  0.00E+00  2.41E-06  4.23E-04  8.18E-03  0.09763
   1326.    7.541  1.89E-06  3.32E-04  4.27E-07  7.51E-05  0.00E+00  0.00E+00  2.32E-06  4.07E-04  8.19E-03  0.11544
   1328.    7.530  1.87E-06  3.30E-04  2.02E-07  3.57E-05  0.00E+00  0.00E+00  2.07E-06  3.66E-04  8.19E-03  0.05496
   1330.    7.519  1.94E-06  3.44E-04  3.35E-07  5.92E-05  0.00E+00  0.00E+00  2.28E-06  4.03E-04  8.19E-03  0.09167
   1332.    7.508  1.64E-06  2.90E-04  3.07E-07  5.45E-05  0.00E+00  0.00E+00  1.94E-06  3.45E-04  8.20E-03  0.08426
   1334.    7.496  1.82E-06  3.24E-04  1.16E-07  2.06E-05  0.00E+00  0.00E+00  1.94E-06  3.45E-04  8.20E-03  0.03200
   1336.    7.485  1.61E-06  2.87E-04  4.36E-08  7.79E-06  0.00E+00  0.00E+00  1.65E-06  2.95E-04  8.21E-03  0.01208
   1338.    7.474  1.03E-06  1.84E-04  5.53E-13  9.91E-11  0.00E+00  0.00E+00  1.03E-06  1.84E-04  8.21E-03  0.00000
   1340.    7.463  9.98E-07  1.79E-04  8.99E-11  1.61E-08  0.00E+00  0.00E+00  9.98E-07  1.79E-04  8.21E-03  0.00003
   1342.    7.452  1.26E-06  2.26E-04  1.63E-08  2.94E-06  0.00E+00  0.00E+00  1.27E-06  2.29E-04  8.21E-03  0.00464
   1344.    7.440  1.75E-06  3.16E-04  1.18E-07  2.13E-05  0.00E+00  0.00E+00  1.87E-06  3.37E-04  8.22E-03  0.03353
   1346.    7.429  1.74E-06  3.16E-04  1.39E-07  2.52E-05  0.00E+00  0.00E+00  1.88E-06  3.41E-04  8.22E-03  0.03966
   1348.    7.418  1.42E-06  2.59E-04  4.21E-08  7.65E-06  0.00E+00  0.00E+00  1.46E-06  2.66E-04  8.22E-03  0.01206
   1350.    7.407  1.50E-06  2.73E-04  3.22E-08  5.86E-06  0.00E+00  0.00E+00  1.53E-06  2.79E-04  8.23E-03  0.00931
   1352.    7.396  1.62E-06  2.96E-04  5.90E-08  1.08E-05  0.00E+00  0.00E+00  1.68E-06  3.07E-04  8.23E-03  0.01713
   1354.    7.386  1.47E-06  2.70E-04  2.49E-08  4.57E-06  0.00E+00  0.00E+00  1.50E-06  2.74E-04  8.23E-03  0.00726
   1356.    7.375  1.45E-06  2.66E-04  1.22E-08  2.23E-06  0.00E+00  0.00E+00  1.46E-06  2.69E-04  8.23E-03  0.00358
   1358.    7.364  1.58E-06  2.91E-04  1.25E-08  2.30E-06  0.00E+00  0.00E+00  1.59E-06  2.94E-04  8.24E-03  0.00368
   1360.    7.353  1.35E-06  2.50E-04  1.44E-09  2.67E-07  0.00E+00  0.00E+00  1.35E-06  2.50E-04  8.24E-03  0.00043
   1362.    7.342  9.81E-07  1.82E-04  1.62E-11  3.00E-09  0.00E+00  0.00E+00  9.81E-07  1.82E-04  8.24E-03  0.00000
   1364.    7.331  1.14E-06  2.11E-04  4.35E-10  8.10E-08  0.00E+00  0.00E+00  1.14E-06  2.12E-04  8.24E-03  0.00013
   1366.    7.321  1.55E-06  2.89E-04  2.63E-09  4.92E-07  0.00E+00  0.00E+00  1.55E-06  2.90E-04  8.25E-03  0.00080
   1368.    7.310  1.35E-06  2.52E-04  1.80E-09  3.36E-07  0.00E+00  0.00E+00  1.35E-06  2.52E-04  8.25E-03  0.00054
   1370.    7.299  1.29E-06  2.43E-04  5.71E-11  1.07E-08  0.00E+00  0.00E+00  1.29E-06  2.43E-04  8.25E-03  0.00002
   1372.    7.289  1.20E-06  2.27E-04  4.45E-11  8.37E-09  0.00E+00  0.00E+00  1.20E-06  2.27E-04  8.26E-03  0.00001
   1374.    7.278  8.47E-07  1.60E-04  4.13E-14  7.81E-12  0.00E+00  0.00E+00  8.47E-07  1.60E-04  8.26E-03  0.00000
   1376.    7.267  1.01E-06  1.91E-04  4.54E-12  8.60E-10  0.00E+00  0.00E+00  1.01E-06  1.91E-04  8.26E-03  0.00000
   1378.    7.257  1.25E-06  2.37E-04  1.66E-11  3.15E-09  0.00E+00  0.00E+00  1.25E-06  2.37E-04  8.26E-03  0.00001
   1380.    7.246  1.38E-06  2.64E-04  2.24E-09  4.26E-07  0.00E+00  0.00E+00  1.39E-06  2.64E-04  8.26E-03  0.00071
   1382.    7.236  1.56E-06  2.98E-04  3.52E-09  6.73E-07  0.00E+00  0.00E+00  1.56E-06  2.99E-04  8.27E-03  0.00111
   1384.    7.225  1.48E-06  2.83E-04  1.25E-09  2.39E-07  0.00E+00  0.00E+00  1.48E-06  2.83E-04  8.27E-03  0.00040
   1386.    7.215  1.06E-06  2.03E-04  1.34E-10  2.58E-08  0.00E+00  0.00E+00  1.06E-06  2.03E-04  8.27E-03  0.00004
   1388.    7.205  8.77E-07  1.69E-04  6.25E-14  1.20E-11  0.00E+00  0.00E+00  8.77E-07  1.69E-04  8.27E-03  0.00000
   1390.    7.194  1.14E-06  2.20E-04  2.40E-13  4.63E-11  0.00E+00  0.00E+00  1.14E-06  2.20E-04  8.28E-03  0.00000
   1392.    7.184  1.10E-06  2.14E-04  1.28E-13  2.48E-11  0.00E+00  0.00E+00  1.10E-06  2.14E-04  8.28E-03  0.00000
   1394.    7.174  7.74E-07  1.50E-04  5.16E-15  1.00E-12  0.00E+00  0.00E+00  7.74E-07  1.50E-04  8.28E-03  0.00000
   1396.    7.163  7.55E-07  1.47E-04  1.57E-17  3.05E-15  0.00E+00  0.00E+00  7.55E-07  1.47E-04  8.28E-03  0.00000
   1398.    7.153  7.65E-07  1.49E-04  7.86E-14  1.54E-11  0.00E+00  0.00E+00  7.65E-07  1.49E-04  8.28E-03  0.00000
   1400.    7.143  8.43E-07  1.65E-04  1.81E-13  3.55E-11  0.00E+00  0.00E+00  8.43E-07  1.65E-04  8.29E-03  0.00000
  iv         1405
1                                             RADIANCE(WATTS/CM2-STER-XXX)
0  FREQ   WAVLEN    PATH THERMAL      SURFACE EMISSION    SURFACE REFLECTED     TOTAL RADIANCE   INTEGRAL    TOTAL
  (CM-1) (MICRN)    (CM-1)   (MICRN)    (CM-1)   (MICRN)    (CM-1)   (MICRN)    (CM-1)   (MICRN)    (CM-1)   TRANS

   1402.    7.133  1.12E-06  2.19E-04  3.11E-13  6.12E-11  0.00E+00  0.00E+00  1.12E-06  2.19E-04  8.29E-03  0.00000
   1404.    7.123  9.42E-07  1.86E-04  3.07E-12  6.06E-10  0.00E+00  0.00E+00  9.42E-07  1.86E-04  8.29E-03  0.00000
   1406.    7.112  1.07E-06  2.11E-04  4.17E-11  8.25E-09  0.00E+00  0.00E+00  1.07E-06  2.11E-04  8.29E-03  0.00001
   1408.    7.102  1.32E-06  2.61E-04  1.10E-10  2.19E-08  0.00E+00  0.00E+00  1.32E-06  2.61E-04  8.29E-03  0.00004
   1410.    7.092  1.17E-06  2.32E-04  4.01E-11  7.96E-09  0.00E+00  0.00E+00  1.17E-06  2.32E-04  8.30E-03  0.00001
   1412.    7.082  1.10E-06  2.20E-04  1.47E-11  2.93E-09  0.00E+00  0.00E+00  1.10E-06  2.20E-04  8.30E-03  0.00001
   1414.    7.072  1.14E-06  2.28E-04  1.47E-11  2.93E-09  0.00E+00  0.00E+00  1.14E-06  2.28E-04  8.30E-03  0.00001
   1416.    7.062  8.75E-07  1.75E-04  5.95E-13  1.19E-10  0.00E+00  0.00E+00  8.75E-07  1.75E-04  8.30E-03  0.00000
   1418.    7.052  6.03E-07  1.21E-04  1.40E-19  2.81E-17  0.00E+00  0.00E+00  6.03E-07  1.21E-04  8.30E-03  0.00000
   1420.    7.042  5.86E-07  1.18E-04  3.91E-23  7.89E-21  0.00E+00  0.00E+00  5.86E-07  1.18E-04  8.31E-03  0.00000
   1422.    7.032  7.55E-07  1.53E-04  2.20E-18  4.45E-16  0.00E+00  0.00E+00  7.55E-07  1.53E-04  8.31E-03  0.00000
   1424.    7.022  7.48E-07  1.52E-04  5.92E-16  1.20E-13  0.00E+00  0.00E+00  7.48E-07  1.52E-04  8.31E-03  0.00000
   1426.    7.013  9.41E-07  1.91E-04  5.79E-15  1.18E-12  0.00E+00  0.00E+00  9.41E-07  1.91E-04  8.31E-03  0.00000
   1428.    7.003  8.59E-07  1.75E-04  9.73E-15  1.98E-12  0.00E+00  0.00E+00  8.59E-07  1.75E-04  8.31E-03  0.00000
   1430.    6.993  7.00E-07  1.43E-04  1.53E-14  3.13E-12  0.00E+00  0.00E+00  7.00E-07  1.43E-04  8.31E-03  0.00000
   1432.    6.983  7.92E-07  1.62E-04  5.11E-15  1.05E-12  0.00E+00  0.00E+00  7.92E-07  1.62E-04  8.31E-03  0.00000
   1434.    6.974  7.37E-07  1.51E-04  1.89E-18  3.88E-16  0.00E+00  0.00E+00  7.37E-07  1.51E-04  8.32E-03  0.00000
   1436.    6.964  5.40E-07  1.11E-04  1.57E-24  3.24E-22  0.00E+00  0.00E+00  5.40E-07  1.11E-04  8.32E-03  0.00000
   1438.    6.954  6.49E-07  1.34E-04  4.91E-17  1.01E-14  0.00E+00  0.00E+00  6.49E-07  1.34E-04  8.32E-03  0.00000
   1440.    6.944  9.41E-07  1.95E-04  4.44E-14  9.20E-12  0.00E+00  0.00E+00  9.41E-07  1.95E-04  8.32E-03  0.00000
   1442.    6.935  1.05E-06  2.18E-04  3.34E-13  6.94E-11  0.00E+00  0.00E+00  1.05E-06  2.18E-04  8.32E-03  0.00000
   1444.    6.925  1.01E-06  2.11E-04  4.12E-13  8.59E-11  0.00E+00  0.00E+00  1.01E-06  2.11E-04  8.32E-03  0.00000
   1446.    6.916  7.67E-07  1.60E-04  8.16E-14  1.71E-11  0.00E+00  0.00E+00  7.67E-07  1.60E-04  8.33E-03  0.00000
   1448.    6.906  6.43E-07  1.35E-04  1.14E-15  2.40E-13  0.00E+00  0.00E+00  6.43E-07  1.35E-04  8.33E-03  0.00000
   1450.    6.897  7.73E-07  1.63E-04  3.83E-16  8.05E-14  0.00E+00  0.00E+00  7.73E-07  1.63E-04  8.33E-03  0.00000
   1452.    6.887  7.19E-07  1.52E-04  5.18E-19  1.09E-16  0.00E+00  0.00E+00  7.19E-07  1.52E-04  8.33E-03  0.00000
   1454.    6.878  5.94E-07  1.26E-04  6.28E-23  1.33E-20  0.00E+00  0.00E+00  5.94E-07  1.26E-04  8.33E-03  0.00000
   1456.    6.868  4.03E-07  8.55E-05  4.08E-37  8.66E-35  0.00E+00  0.00E+00  4.03E-07  8.55E-05  8.33E-03  0.00000
   1458.    6.859  3.68E-07  7.82E-05  8.41E-45  1.79E-42  0.00E+00  0.00E+00  3.68E-07  7.82E-05  8.33E-03  0.00000
   1460.    6.849  5.49E-07  1.17E-04  2.63E-26  5.61E-24  0.00E+00  0.00E+00  5.49E-07  1.17E-04  8.33E-03  0.00000
   1462.    6.840  6.64E-07  1.42E-04  7.88E-26  1.68E-23  0.00E+00  0.00E+00  6.64E-07  1.42E-04  8.34E-03  0.00000
   1464.    6.831  5.08E-07  1.09E-04  1.21E-18  2.59E-16  0.00E+00  0.00E+00  5.08E-07  1.09E-04  8.34E-03  0.00000
   1466.    6.821  5.40E-07  1.16E-04  1.21E-18  2.59E-16  0.00E+00  0.00E+00  5.40E-07  1.16E-04  8.34E-03  0.00000
   1468.    6.812  6.90E-07  1.49E-04  5.14E-23  1.11E-20  0.00E+00  0.00E+00  6.90E-07  1.49E-04  8.34E-03  0.00000
   1470.    6.803  6.05E-07  1.31E-04  2.91E-23  6.28E-21  0.00E+00  0.00E+00  6.05E-07  1.31E-04  8.34E-03  0.00000
   1472.    6.793  4.02E-07  8.72E-05  2.33E-31  5.06E-29  0.00E+00  0.00E+00  4.02E-07  8.72E-05  8.34E-03  0.00000
   1474.    6.784  3.85E-07  8.36E-05  3.72E-31  8.09E-29  0.00E+00  0.00E+00  3.85E-07  8.36E-05  8.34E-03  0.00000
   1476.    6.775  4.67E-07  1.02E-04  1.31E-25  2.85E-23  0.00E+00  0.00E+00  4.67E-07  1.02E-04  8.34E-03  0.00000
   1478.    6.766  6.51E-07  1.42E-04  3.27E-20  7.14E-18  0.00E+00  0.00E+00  6.51E-07  1.42E-04  8.34E-03  0.00000
   1480.    6.757  6.80E-07  1.49E-04  4.81E-20  1.05E-17  0.00E+00  0.00E+00  6.80E-07  1.49E-04  8.35E-03  0.00000
   1482.    6.748  6.48E-07  1.42E-04  1.25E-19  2.74E-17  0.00E+00  0.00E+00  6.48E-07  1.42E-04  8.35E-03  0.00000
   1484.    6.739  6.88E-07  1.52E-04  1.27E-19  2.79E-17  0.00E+00  0.00E+00  6.88E-07  1.52E-04  8.35E-03  0.00000
   1486.    6.729  5.23E-07  1.15E-04  8.48E-21  1.87E-18  0.00E+00  0.00E+00  5.23E-07  1.15E-04  8.35E-03  0.00000
   1488.    6.720  3.93E-07  8.69E-05  2.12E-27  4.70E-25  0.00E+00  0.00E+00  3.93E-07  8.69E-05  8.35E-03  0.00000
   1490.    6.711  3.77E-07  8.37E-05  4.37E-37  9.71E-35  0.00E+00  0.00E+00  3.77E-07  8.37E-05  8.35E-03  0.00000
   1492.    6.702  4.96E-07  1.10E-04  1.16E-30  2.59E-28  0.00E+00  0.00E+00  4.96E-07  1.10E-04  8.35E-03  0.00000
   1494.    6.693  5.31E-07  1.19E-04  1.22E-26  2.72E-24  0.00E+00  0.00E+00  5.31E-07  1.19E-04  8.35E-03  0.00000
   1496.    6.684  3.83E-07  8.57E-05  3.66E-26  8.19E-24  0.00E+00  0.00E+00  3.83E-07  8.57E-05  8.35E-03  0.00000
   1498.    6.676  3.42E-07  7.68E-05  1.22E-26  2.74E-24  0.00E+00  0.00E+00  3.42E-07  7.68E-05  8.35E-03  0.00000
   1500.    6.667  4.09E-07  9.21E-05  4.82E-34  1.08E-31  0.00E+00  0.00E+00  4.09E-07  9.21E-05  8.36E-03  0.00000
  iv         1505
1                                             RADIANCE(WATTS/CM2-STER-XXX)
0  FREQ   WAVLEN    PATH THERMAL      SURFACE EMISSION    SURFACE REFLECTED     TOTAL RADIANCE   INTEGRAL    TOTAL
  (CM-1) (MICRN)    (CM-1)   (MICRN)    (CM-1)   (MICRN)    (CM-1)   (MICRN)    (CM-1)   (MICRN)    (CM-1)   TRANS

   1502.    6.658  4.66E-07  1.05E-04  5.13E-39  1.16E-36  0.00E+00  0.00E+00  4.66E-07  1.05E-04  8.36E-03  0.00000
   1504.    6.649  3.98E-07  9.00E-05  1.71E-39  3.87E-37  0.00E+00  0.00E+00  3.98E-07  9.00E-05  8.36E-03  0.00000
   1506.    6.640  2.72E-07  6.16E-05  0.00E+00  0.00E+00  0.00E+00  0.00E+00  2.72E-07  6.16E-05  8.36E-03  0.00000
   1508.    6.631  2.69E-07  6.11E-05  0.00E+00  0.00E+00  0.00E+00  0.00E+00  2.69E-07  6.11E-05  8.36E-03  0.00000
   1510.    6.623  3.29E-07  7.50E-05  1.12E-38  2.56E-36  0.00E+00  0.00E+00  3.29E-07  7.50E-05  8.36E-03  0.00000
   1512.    6.614  3.84E-07  8.77E-05  3.37E-38  7.70E-36  0.00E+00  0.00E+00  3.84E-07  8.77E-05  8.36E-03  0.00000
   1514.    6.605  4.07E-07  9.34E-05  1.12E-38  2.57E-36  0.00E+00  0.00E+00  4.07E-07  9.34E-05  8.36E-03  0.00000
   1516.    6.596  3.30E-07  7.58E-05  0.00E+00  0.00E+00  0.00E+00  0.00E+00  3.30E-07  7.58E-05  8.36E-03  0.00000
   1518.    6.588  3.15E-07  7.26E-05  0.00E+00  0.00E+00  0.00E+00  0.00E+00  3.15E-07  7.26E-05  8.36E-03  0.00000
   1520.    6.579  2.93E-07  6.77E-05  0.00E+00  0.00E+00  0.00E+00  0.00E+00  2.93E-07  6.77E-05  8.36E-03  0.00000
   1522.    6.570  2.60E-07  6.02E-05  0.00E+00  0.00E+00  0.00E+00  0.00E+00  2.60E-07  6.02E-05  8.36E-03  0.00000
   1524.    6.562  2.95E-07  6.85E-05  4.76E-44  1.11E-41  0.00E+00  0.00E+00  2.95E-07  6.85E-05  8.36E-03  0.00000
   1526.    6.553  3.25E-07  7.58E-05  4.76E-44  1.11E-41  0.00E+00  0.00E+00  3.25E-07  7.58E-05  8.36E-03  0.00000
   1528.    6.545  3.60E-07  8.41E-05  2.56E-37  5.99E-35  0.00E+00  0.00E+00  3.60E-07  8.41E-05  8.36E-03  0.00000
   1530.    6.536  4.06E-07  9.52E-05  2.56E-37  6.00E-35  0.00E+00  0.00E+00  4.06E-07  9.52E-05  8.37E-03  0.00000
   1532.    6.527  3.43E-07  8.04E-05  4.80E-42  1.13E-39  0.00E+00  0.00E+00  3.43E-07  8.04E-05  8.37E-03  0.00000
   1534.    6.519  2.91E-07  6.85E-05  0.00E+00  0.00E+00  0.00E+00  0.00E+00  2.91E-07  6.85E-05  8.37E-03  0.00000
   1536.    6.510  3.46E-07  8.16E-05  0.00E+00  0.00E+00  0.00E+00  0.00E+00  3.46E-07  8.16E-05  8.37E-03  0.00000
   1538.    6.502  2.74E-07  6.48E-05  0.00E+00  0.00E+00  0.00E+00  0.00E+00  2.74E-07  6.48E-05  8.37E-03  0.00000
   1540.    6.494  2.09E-07  4.95E-05  0.00E+00  0.00E+00  0.00E+00  0.00E+00  2.09E-07  4.95E-05  8.37E-03  0.00000
   1542.    6.485  2.26E-07  5.36E-05  0.00E+00  0.00E+00  0.00E+00  0.00E+00  2.26E-07  5.36E-05  8.37E-03  0.00000
   1544.    6.477  2.69E-07  6.41E-05  0.00E+00  0.00E+00  0.00E+00  0.00E+00  2.69E-07  6.41E-05  8.37E-03  0.00000
   1546.    6.468  3.36E-07  8.04E-05  1.36E-39  3.26E-37  0.00E+00  0.00E+00  3.36E-07  8.04E-05  8.37E-03  0.00000
   1548.    6.460  3.95E-07  9.47E-05  4.53E-36  1.09E-33  0.00E+00  0.00E+00  3.95E-07  9.47E-05  8.37E-03  0.00000
   1550.    6.452  3.54E-07  8.50E-05  1.36E-35  3.26E-33  0.00E+00  0.00E+00  3.54E-07  8.50E-05  8.37E-03  0.00000
   1552.    6.443  3.44E-07  8.29E-05  4.53E-36  1.09E-33  0.00E+00  0.00E+00  3.44E-07  8.29E-05  8.37E-03  0.00000
   1554.    6.435  2.87E-07  6.92E-05  5.50E-40  1.33E-37  0.00E+00  0.00E+00  2.87E-07  6.92E-05  8.37E-03  0.00000
   1556.    6.427  2.50E-07  6.06E-05  1.83E-40  4.44E-38  0.00E+00  0.00E+00  2.50E-07  6.06E-05  8.37E-03  0.00000
   1558.    6.418  2.00E-07  4.86E-05  0.00E+00  0.00E+00  0.00E+00  0.00E+00  2.00E-07  4.86E-05  8.37E-03  0.00000
   1560.    6.410  2.05E-07  4.98E-05  0.00E+00  0.00E+00  0.00E+00  0.00E+00  2.05E-07  4.98E-05  8.37E-03  0.00000
   1562.    6.402  2.92E-07  7.14E-05  0.00E+00  0.00E+00  0.00E+00  0.00E+00  2.92E-07  7.14E-05  8.37E-03  0.00000
   1564.    6.394  3.12E-07  7.63E-05  4.51E-35  1.10E-32  0.00E+00  0.00E+00  3.12E-07  7.63E-05  8.38E-03  0.00000
   1566.    6.386  3.34E-07  8.20E-05  4.51E-35  1.11E-32  0.00E+00  0.00E+00  3.34E-07  8.20E-05  8.38E-03  0.00000
   1568.    6.378  3.05E-07  7.51E-05  1.99E-35  4.89E-33  0.00E+00  0.00E+00  3.05E-07  7.51E-05  8.38E-03  0.00000
   1570.    6.369  2.62E-07  6.45E-05  5.96E-35  1.47E-32  0.00E+00  0.00E+00  2.62E-07  6.45E-05  8.38E-03  0.00000
   1572.    6.361  3.44E-07  8.50E-05  1.99E-35  4.91E-33  0.00E+00  0.00E+00  3.44E-07  8.50E-05  8.38E-03  0.00000
   1574.    6.353  3.17E-07  7.85E-05  1.12E-21  2.77E-19  0.00E+00  0.00E+00  3.17E-07  7.85E-05  8.38E-03  0.00000
   1576.    6.345  2.23E-07  5.54E-05  3.36E-21  8.34E-19  0.00E+00  0.00E+00  2.23E-07  5.54E-05  8.38E-03  0.00000
   1578.    6.337  2.83E-07  7.06E-05  1.12E-21  2.79E-19  0.00E+00  0.00E+00  2.83E-07  7.06E-05  8.38E-03  0.00000
   1580.    6.329  4.20E-07  1.05E-04  3.07E-21  7.66E-19  0.00E+00  0.00E+00  4.20E-07  1.05E-04  8.38E-03  0.00000
   1582.    6.321  4.83E-07  1.21E-04  4.94E-18  1.24E-15  0.00E+00  0.00E+00  4.83E-07  1.21E-04  8.38E-03  0.00000
   1584.    6.313  5.29E-07  1.33E-04  2.43E-16  6.10E-14  0.00E+00  0.00E+00  5.29E-07  1.33E-04  8.38E-03  0.00000
   1586.    6.305  5.55E-07  1.40E-04  1.47E-15  3.70E-13  0.00E+00  0.00E+00  5.55E-07  1.40E-04  8.38E-03  0.00000
   1588.    6.297  5.36E-07  1.35E-04  2.27E-15  5.72E-13  0.00E+00  0.00E+00  5.36E-07  1.35E-04  8.38E-03  0.00000
   1590.    6.289  4.68E-07  1.18E-04  5.97E-16  1.51E-13  0.00E+00  0.00E+00  4.68E-07  1.18E-04  8.39E-03  0.00000
   1592.    6.281  4.43E-07  1.12E-04  3.84E-17  9.73E-15  0.00E+00  0.00E+00  4.43E-07  1.12E-04  8.39E-03  0.00000
   1594.    6.274  4.01E-07  1.02E-04  7.00E-17  1.78E-14  0.00E+00  0.00E+00  4.01E-07  1.02E-04  8.39E-03  0.00000
   1596.    6.266  4.21E-07  1.07E-04  3.20E-15  8.15E-13  0.00E+00  0.00E+00  4.21E-07  1.07E-04  8.39E-03  0.00000
   1598.    6.258  5.25E-07  1.34E-04  2.00E-14  5.10E-12  0.00E+00  0.00E+00  5.25E-07  1.34E-04  8.39E-03  0.00000
   1600.    6.250  4.95E-07  1.27E-04  1.50E-14  3.85E-12  0.00E+00  0.00E+00  4.95E-07  1.27E-04  8.39E-03  0.00000
  iv         1605
1                                             RADIANCE(WATTS/CM2-STER-XXX)
0  FREQ   WAVLEN    PATH THERMAL      SURFACE EMISSION    SURFACE REFLECTED     TOTAL RADIANCE   INTEGRAL    TOTAL
  (CM-1) (MICRN)    (CM-1)   (MICRN)    (CM-1)   (MICRN)    (CM-1)   (MICRN)    (CM-1)   (MICRN)    (CM-1)   TRANS

   1602.    6.242  3.97E-07  1.02E-04  7.01E-16  1.80E-13  0.00E+00  0.00E+00  3.97E-07  1.02E-04  8.39E-03  0.00000
   1604.    6.234  4.28E-07  1.10E-04  2.12E-16  5.44E-14  0.00E+00  0.00E+00  4.28E-07  1.10E-04  8.39E-03  0.00000
   1606.    6.227  4.28E-07  1.11E-04  2.12E-16  5.47E-14  0.00E+00  0.00E+00  4.28E-07  1.11E-04  8.39E-03  0.00000
   1608.    6.219  3.40E-07  8.79E-05  2.49E-19  6.44E-17  0.00E+00  0.00E+00  3.40E-07  8.79E-05  8.39E-03  0.00000
   1610.    6.211  3.57E-07  9.26E-05  3.49E-20  9.06E-18  0.00E+00  0.00E+00  3.57E-07  9.26E-05  8.39E-03  0.00000
   1612.    6.203  4.01E-07  1.04E-04  1.06E-20  2.76E-18  0.00E+00  0.00E+00  4.01E-07  1.04E-04  8.39E-03  0.00000
   1614.    6.196  3.27E-07  8.51E-05  3.04E-22  7.91E-20  0.00E+00  0.00E+00  3.27E-07  8.51E-05  8.40E-03  0.00000
   1616.    6.188  2.07E-07  5.41E-05  1.55E-18  4.06E-16  0.00E+00  0.00E+00  2.07E-07  5.41E-05  8.40E-03  0.00000
   1618.    6.180  2.26E-07  5.92E-05  1.55E-18  4.07E-16  0.00E+00  0.00E+00  2.26E-07  5.92E-05  8.40E-03  0.00000
   1620.    6.173  3.04E-07  7.97E-05  1.12E-33  2.93E-31  0.00E+00  0.00E+00  3.04E-07  7.97E-05  8.40E-03  0.00000
   1622.    6.165  2.59E-07  6.81E-05  3.10E-26  8.15E-24  0.00E+00  0.00E+00  2.59E-07  6.81E-05  8.40E-03  0.00000
   1624.    6.158  2.19E-07  5.76E-05  9.29E-26  2.45E-23  0.00E+00  0.00E+00  2.19E-07  5.76E-05  8.40E-03  0.00000
   1626.    6.150  2.50E-07  6.62E-05  9.18E-25  2.43E-22  0.00E+00  0.00E+00  2.50E-07  6.62E-05  8.40E-03  0.00000
   1628.    6.143  2.48E-07  6.58E-05  2.66E-24  7.05E-22  0.00E+00  0.00E+00  2.48E-07  6.58E-05  8.40E-03  0.00000
   1630.    6.135  3.22E-07  8.56E-05  8.90E-25  2.37E-22  0.00E+00  0.00E+00  3.22E-07  8.56E-05  8.40E-03  0.00000
   1632.    6.127  3.17E-07  8.45E-05  2.94E-27  7.84E-25  0.00E+00  0.00E+00  3.17E-07  8.45E-05  8.40E-03  0.00000
   1634.    6.120  2.11E-07  5.63E-05  4.14E-32  1.11E-29  0.00E+00  0.00E+00  2.11E-07  5.63E-05  8.40E-03  0.00000
   1636.    6.112  1.58E-07  4.22E-05  0.00E+00  0.00E+00  0.00E+00  0.00E+00  1.58E-07  4.22E-05  8.40E-03  0.00000
   1638.    6.105  2.03E-07  5.44E-05  8.03E-36  2.15E-33  0.00E+00  0.00E+00  2.03E-07  5.44E-05  8.40E-03  0.00000
   1640.    6.098  2.65E-07  7.13E-05  8.29E-34  2.23E-31  0.00E+00  0.00E+00  2.65E-07  7.13E-05  8.40E-03  0.00000
   1642.    6.090  2.85E-07  7.69E-05  2.38E-33  6.41E-31  0.00E+00  0.00E+00  2.85E-07  7.69E-05  8.40E-03  0.00000
   1644.    6.083  2.37E-07  6.39E-05  7.83E-34  2.11E-31  0.00E+00  0.00E+00  2.37E-07  6.39E-05  8.40E-03  0.00000
   1646.    6.075  1.59E-07  4.30E-05  0.00E+00  0.00E+00  0.00E+00  0.00E+00  1.59E-07  4.30E-05  8.40E-03  0.00000
   1648.    6.068  1.65E-07  4.48E-05  0.00E+00  0.00E+00  0.00E+00  0.00E+00  1.65E-07  4.48E-05  8.40E-03  0.00000
   1650.    6.061  1.87E-07  5.10E-05  0.00E+00  0.00E+00  0.00E+00  0.00E+00  1.87E-07  5.10E-05  8.40E-03  0.00000
   1652.    6.053  1.43E-07  3.91E-05  0.00E+00  0.00E+00  0.00E+00  0.00E+00  1.43E-07  3.91E-05  8.40E-03  0.00000
   1654.    6.046  1.34E-07  3.66E-05  0.00E+00  0.00E+00  0.00E+00  0.00E+00  1.34E-07  3.66E-05  8.40E-03  0.00000
   1656.    6.039  2.03E-07  5.56E-05  1.31E-37  3.59E-35  0.00E+00  0.00E+00  2.03E-07  5.56E-05  8.40E-03  0.00000
   1658.    6.031  2.78E-07  7.65E-05  7.83E-33  2.15E-30  0.00E+00  0.00E+00  2.78E-07  7.65E-05  8.41E-03  0.00000
   1660.    6.024  2.74E-07  7.54E-05  8.97E-33  2.47E-30  0.00E+00  0.00E+00  2.74E-07  7.54E-05  8.41E-03  0.00000
   1662.    6.017  1.99E-07  5.50E-05  2.47E-27  6.83E-25  0.00E+00  0.00E+00  1.99E-07  5.50E-05  8.41E-03  0.00000
   1664.    6.010  2.26E-07  6.25E-05  2.47E-27  6.85E-25  0.00E+00  0.00E+00  2.26E-07  6.25E-05  8.41E-03  0.00000
   1666.    6.002  2.69E-07  7.46E-05  2.60E-33  7.21E-31  0.00E+00  0.00E+00  2.69E-07  7.46E-05  8.41E-03  0.00000
   1668.    5.995  1.93E-07  5.37E-05  8.55E-34  2.38E-31  0.00E+00  0.00E+00  1.93E-07  5.37E-05  8.41E-03  0.00000
   1670.    5.988  1.47E-07  4.09E-05  0.00E+00  0.00E+00  0.00E+00  0.00E+00  1.47E-07  4.09E-05  8.41E-03  0.00000
   1672.    5.981  1.79E-07  4.99E-05  0.00E+00  0.00E+00  0.00E+00  0.00E+00  1.79E-07  4.99E-05  8.41E-03  0.00000
   1674.    5.974  1.85E-07  5.18E-05  0.00E+00  0.00E+00  0.00E+00  0.00E+00  1.85E-07  5.18E-05  8.41E-03  0.00000
   1676.    5.967  1.72E-07  4.84E-05  4.16E-41  1.17E-38  0.00E+00  0.00E+00  1.72E-07  4.84E-05  8.41E-03  0.00000
   1678.    5.959  2.16E-07  6.09E-05  1.82E-40  5.13E-38  0.00E+00  0.00E+00  2.16E-07  6.09E-05  8.41E-03  0.00000
   1680.    5.952  2.02E-07  5.69E-05  2.14E-40  6.04E-38  0.00E+00  0.00E+00  2.02E-07  5.69E-05  8.41E-03  0.00000
   1682.    5.945  1.70E-07  4.82E-05  5.74E-41  1.62E-38  0.00E+00  0.00E+00  1.70E-07  4.82E-05  8.41E-03  0.00000
   1684.    5.938  1.25E-07  3.54E-05  0.00E+00  0.00E+00  0.00E+00  0.00E+00  1.25E-07  3.54E-05  8.41E-03  0.00000
   1686.    5.931  1.55E-07  4.39E-05  1.40E-45  3.98E-43  0.00E+00  0.00E+00  1.55E-07  4.39E-05  8.41E-03  0.00000
   1688.    5.924  1.88E-07  5.34E-05  3.60E-37  1.02E-34  0.00E+00  0.00E+00  1.88E-07  5.34E-05  8.41E-03  0.00000
   1690.    5.917  1.97E-07  5.61E-05  1.08E-36  3.08E-34  0.00E+00  0.00E+00  1.97E-07  5.61E-05  8.41E-03  0.00000
   1692.    5.910  2.17E-07  6.21E-05  3.61E-37  1.03E-34  0.00E+00  0.00E+00  2.17E-07  6.21E-05  8.41E-03  0.00000
   1694.    5.903  1.74E-07  4.99E-05  5.52E-40  1.59E-37  0.00E+00  0.00E+00  1.74E-07  4.99E-05  8.41E-03  0.00000
   1696.    5.896  1.28E-07  3.68E-05  0.00E+00  0.00E+00  0.00E+00  0.00E+00  1.28E-07  3.68E-05  8.41E-03  0.00000
   1698.    5.889  1.29E-07  3.71E-05  0.00E+00  0.00E+00  0.00E+00  0.00E+00  1.29E-07  3.71E-05  8.41E-03  0.00000
   1700.    5.882  1.12E-07  3.23E-05  0.00E+00  0.00E+00  0.00E+00  0.00E+00  1.12E-07  3.23E-05  8.41E-03  0.00000
  iv         1705
1                                             RADIANCE(WATTS/CM2-STER-XXX)
0  FREQ   WAVLEN    PATH THERMAL      SURFACE EMISSION    SURFACE REFLECTED     TOTAL RADIANCE   INTEGRAL    TOTAL
  (CM-1) (MICRN)    (CM-1)   (MICRN)    (CM-1)   (MICRN)    (CM-1)   (MICRN)    (CM-1)   (MICRN)    (CM-1)   TRANS

   1702.    5.875  1.41E-07  4.07E-05  2.66E-44  7.71E-42  0.00E+00  0.00E+00  1.41E-07  4.07E-05  8.41E-03  0.00000
   1704.    5.869  1.48E-07  4.31E-05  3.92E-40  1.14E-37  0.00E+00  0.00E+00  1.48E-07  4.31E-05  8.41E-03  0.00000
   1706.    5.862  1.43E-07  4.17E-05  1.18E-39  3.42E-37  0.00E+00  0.00E+00  1.43E-07  4.17E-05  8.41E-03  0.00000
   1708.    5.855  1.95E-07  5.69E-05  7.24E-30  2.11E-27  0.00E+00  0.00E+00  1.95E-07  5.69E-05  8.41E-03  0.00000
   1710.    5.848  2.15E-07  6.30E-05  2.16E-29  6.31E-27  0.00E+00  0.00E+00  2.15E-07  6.30E-05  8.41E-03  0.00000
   1712.    5.841  2.16E-07  6.34E-05  7.20E-30  2.11E-27  0.00E+00  0.00E+00  2.16E-07  6.34E-05  8.41E-03  0.00000
   1714.    5.834  1.67E-07  4.91E-05  1.18E-32  3.46E-30  0.00E+00  0.00E+00  1.67E-07  4.91E-05  8.42E-03  0.00000
   1716.    5.828  1.25E-07  3.68E-05  5.96E-43  1.75E-40  0.00E+00  0.00E+00  1.25E-07  3.68E-05  8.42E-03  0.00000
   1718.    5.821  1.20E-07  3.55E-05  5.96E-43  1.76E-40  0.00E+00  0.00E+00  1.20E-07  3.55E-05  8.42E-03  0.00000
   1720.    5.814  1.84E-07  5.45E-05  3.43E-28  1.01E-25  0.00E+00  0.00E+00  1.84E-07  5.45E-05  8.42E-03  0.00000
   1722.    5.807  2.27E-07  6.75E-05  8.43E-25  2.50E-22  0.00E+00  0.00E+00  2.27E-07  6.75E-05  8.42E-03  0.00000
   1724.    5.800  2.50E-07  7.42E-05  1.71E-20  5.09E-18  0.00E+00  0.00E+00  2.50E-07  7.42E-05  8.42E-03  0.00000
   1726.    5.794  2.75E-07  8.19E-05  3.02E-20  9.01E-18  0.00E+00  0.00E+00  2.75E-07  8.19E-05  8.42E-03  0.00000
   1728.    5.787  2.49E-07  7.42E-05  7.08E-21  2.11E-18  0.00E+00  0.00E+00  2.49E-07  7.42E-05  8.42E-03  0.00000
   1730.    5.780  1.84E-07  5.50E-05  5.93E-23  1.77E-20  0.00E+00  0.00E+00  1.84E-07  5.50E-05  8.42E-03  0.00000
   1732.    5.774  1.43E-07  4.28E-05  6.10E-31  1.83E-28  0.00E+00  0.00E+00  1.43E-07  4.28E-05  8.42E-03  0.00000
   1734.    5.767  1.11E-07  3.33E-05  0.00E+00  0.00E+00  0.00E+00  0.00E+00  1.11E-07  3.33E-05  8.42E-03  0.00000
   1736.    5.760  1.48E-07  4.45E-05  2.80E-45  8.45E-43  0.00E+00  0.00E+00  1.48E-07  4.45E-05  8.42E-03  0.00000
   1738.    5.754  1.53E-07  4.63E-05  4.71E-24  1.42E-21  0.00E+00  0.00E+00  1.53E-07  4.63E-05  8.42E-03  0.00000
   1740.    5.747  1.38E-07  4.19E-05  1.41E-23  4.28E-21  0.00E+00  0.00E+00  1.38E-07  4.19E-05  8.42E-03  0.00000
   1742.    5.741  1.69E-07  5.13E-05  4.71E-24  1.43E-21  0.00E+00  0.00E+00  1.69E-07  5.13E-05  8.42E-03  0.00000
   1744.    5.734  1.62E-07  4.91E-05  6.33E-31  1.93E-28  0.00E+00  0.00E+00  1.62E-07  4.91E-05  8.42E-03  0.00000
   1746.    5.727  1.59E-07  4.84E-05  1.89E-30  5.77E-28  0.00E+00  0.00E+00  1.59E-07  4.84E-05  8.42E-03  0.00000
   1748.    5.721  1.36E-07  4.15E-05  1.44E-28  4.39E-26  0.00E+00  0.00E+00  1.36E-07  4.15E-05  8.42E-03  0.00000
   1750.    5.714  1.36E-07  4.15E-05  2.94E-27  9.01E-25  0.00E+00  0.00E+00  1.36E-07  4.15E-05  8.42E-03  0.00000
   1752.    5.708  1.74E-07  5.34E-05  4.95E-21  1.52E-18  0.00E+00  0.00E+00  1.74E-07  5.34E-05  8.42E-03  0.00000
   1754.    5.701  2.34E-07  7.20E-05  1.67E-20  5.15E-18  0.00E+00  0.00E+00  2.34E-07  7.20E-05  8.42E-03  0.00000
   1756.    5.695  2.02E-07  6.23E-05  3.05E-18  9.39E-16  0.00E+00  0.00E+00  2.02E-07  6.23E-05  8.42E-03  0.00000
   1758.    5.688  1.97E-07  6.08E-05  3.04E-18  9.40E-16  0.00E+00  0.00E+00  1.97E-07  6.08E-05  8.42E-03  0.00000
   1760.    5.682  1.92E-07  5.95E-05  2.65E-17  8.19E-15  0.00E+00  0.00E+00  1.92E-07  5.95E-05  8.42E-03  0.00000
   1762.    5.675  1.57E-07  4.89E-05  7.94E-17  2.46E-14  0.00E+00  0.00E+00  1.57E-07  4.89E-05  8.42E-03  0.00000
   1764.    5.669  2.21E-07  6.88E-05  2.84E-17  8.83E-15  0.00E+00  0.00E+00  2.21E-07  6.88E-05  8.42E-03  0.00000
   1766.    5.663  2.42E-07  7.55E-05  4.41E-18  1.38E-15  0.00E+00  0.00E+00  2.42E-07  7.55E-05  8.42E-03  0.00000
   1768.    5.656  1.77E-07  5.54E-05  1.24E-18  3.88E-16  0.00E+00  0.00E+00  1.77E-07  5.54E-05  8.43E-03  0.00000
   1770.    5.650  1.38E-07  4.32E-05  6.98E-26  2.19E-23  0.00E+00  0.00E+00  1.38E-07  4.32E-05  8.43E-03  0.00000
   1772.    5.643  1.02E-07  3.19E-05  5.22E-24  1.64E-21  0.00E+00  0.00E+00  1.02E-07  3.19E-05  8.43E-03  0.00000
   1774.    5.637  1.29E-07  4.07E-05  4.05E-22  1.27E-19  0.00E+00  0.00E+00  1.29E-07  4.07E-05  8.43E-03  0.00000
   1776.    5.631  1.83E-07  5.76E-05  5.95E-19  1.88E-16  0.00E+00  0.00E+00  1.83E-07  5.76E-05  8.43E-03  0.00000
   1778.    5.624  2.11E-07  6.68E-05  1.78E-18  5.63E-16  0.00E+00  0.00E+00  2.11E-07  6.68E-05  8.43E-03  0.00000
   1780.    5.618  1.69E-07  5.36E-05  6.29E-19  1.99E-16  0.00E+00  0.00E+00  1.69E-07  5.36E-05  8.43E-03  0.00000
   1782.    5.612  1.92E-07  6.09E-05  6.20E-17  1.97E-14  0.00E+00  0.00E+00  1.92E-07  6.09E-05  8.43E-03  0.00000
   1784.    5.605  2.12E-07  6.75E-05  8.81E-16  2.81E-13  0.00E+00  0.00E+00  2.12E-07  6.75E-05  8.43E-03  0.00000
   1786.    5.599  2.50E-07  7.97E-05  9.43E-14  3.01E-11  0.00E+00  0.00E+00  2.50E-07  7.97E-05  8.43E-03  0.00000
   1788.    5.593  2.62E-07  8.38E-05  9.46E-14  3.03E-11  0.00E+00  0.00E+00  2.62E-07  8.38E-05  8.43E-03  0.00000
   1790.    5.587  1.78E-07  5.69E-05  1.02E-15  3.26E-13  0.00E+00  0.00E+00  1.78E-07  5.69E-05  8.43E-03  0.00000
   1792.    5.580  1.13E-07  3.61E-05  3.43E-16  1.10E-13  0.00E+00  0.00E+00  1.13E-07  3.61E-05  8.43E-03  0.00000
   1794.    5.574  1.32E-07  4.26E-05  3.43E-16  1.10E-13  0.00E+00  0.00E+00  1.32E-07  4.26E-05  8.43E-03  0.00000
   1796.    5.568  1.68E-07  5.42E-05  8.45E-19  2.72E-16  0.00E+00  0.00E+00  1.68E-07  5.42E-05  8.43E-03  0.00000
   1798.    5.562  1.81E-07  5.86E-05  1.54E-15  4.98E-13  0.00E+00  0.00E+00  1.81E-07  5.86E-05  8.43E-03  0.00000
   1800.    5.556  1.41E-07  4.57E-05  4.62E-15  1.50E-12  0.00E+00  0.00E+00  1.41E-07  4.57E-05  8.43E-03  0.00000
  iv         1805
1                                             RADIANCE(WATTS/CM2-STER-XXX)
0  FREQ   WAVLEN    PATH THERMAL      SURFACE EMISSION    SURFACE REFLECTED     TOTAL RADIANCE   INTEGRAL    TOTAL
  (CM-1) (MICRN)    (CM-1)   (MICRN)    (CM-1)   (MICRN)    (CM-1)   (MICRN)    (CM-1)   (MICRN)    (CM-1)   TRANS

   1802.    5.549  1.79E-07  5.82E-05  5.25E-13  1.70E-10  0.00E+00  0.00E+00  1.79E-07  5.82E-05  8.43E-03  0.00000
   1804.    5.543  2.56E-07  8.33E-05  2.34E-12  7.63E-10  0.00E+00  0.00E+00  2.56E-07  8.33E-05  8.43E-03  0.00000
   1806.    5.537  2.71E-07  8.83E-05  1.96E-12  6.40E-10  0.00E+00  0.00E+00  2.71E-07  8.83E-05  8.43E-03  0.00000
   1808.    5.531  2.38E-07  7.77E-05  4.27E-13  1.40E-10  0.00E+00  0.00E+00  2.38E-07  7.77E-05  8.43E-03  0.00000
   1810.    5.525  1.77E-07  5.80E-05  2.44E-13  7.99E-11  0.00E+00  0.00E+00  1.77E-07  5.80E-05  8.43E-03  0.00000
   1812.    5.519  1.98E-07  6.49E-05  3.41E-11  1.12E-08  0.00E+00  0.00E+00  1.98E-07  6.50E-05  8.43E-03  0.00004
   1814.    5.513  3.15E-07  1.04E-04  3.59E-10  1.18E-07  0.00E+00  0.00E+00  3.15E-07  1.04E-04  8.43E-03  0.00043
   1816.    5.507  3.23E-07  1.07E-04  4.50E-10  1.48E-07  0.00E+00  0.00E+00  3.24E-07  1.07E-04  8.43E-03  0.00054
   1818.    5.501  3.31E-07  1.09E-04  9.05E-10  2.99E-07  0.00E+00  0.00E+00  3.31E-07  1.10E-04  8.44E-03  0.00111
   1820.    5.495  3.43E-07  1.14E-04  1.13E-09  3.76E-07  0.00E+00  0.00E+00  3.44E-07  1.14E-04  8.44E-03  0.00139
   1822.    5.488  2.65E-07  8.80E-05  1.83E-10  6.06E-08  0.00E+00  0.00E+00  2.65E-07  8.81E-05  8.44E-03  0.00022
   1824.    5.482  1.76E-07  5.85E-05  9.72E-14  3.23E-11  0.00E+00  0.00E+00  1.76E-07  5.85E-05  8.44E-03  0.00000
   1826.    5.476  1.52E-07  5.07E-05  7.08E-15  2.36E-12  0.00E+00  0.00E+00  1.52E-07  5.07E-05  8.44E-03  0.00000
   1828.    5.470  1.53E-07  5.12E-05  2.17E-19  7.24E-17  0.00E+00  0.00E+00  1.53E-07  5.12E-05  8.44E-03  0.00000
   1830.    5.464  1.12E-07  3.76E-05  9.63E-20  3.22E-17  0.00E+00  0.00E+00  1.12E-07  3.76E-05  8.44E-03  0.00000
   1832.    5.459  1.84E-07  6.17E-05  1.31E-12  4.39E-10  0.00E+00  0.00E+00  1.84E-07  6.17E-05  8.44E-03  0.00000
   1834.    5.453  2.51E-07  8.43E-05  5.78E-12  1.94E-09  0.00E+00  0.00E+00  2.51E-07  8.43E-05  8.44E-03  0.00001
   1836.    5.447  2.19E-07  7.37E-05  3.74E-12  1.26E-09  0.00E+00  0.00E+00  2.19E-07  7.37E-05  8.44E-03  0.00000
   1838.    5.441  2.17E-07  7.33E-05  6.89E-12  2.33E-09  0.00E+00  0.00E+00  2.17E-07  7.33E-05  8.44E-03  0.00001
   1840.    5.435  2.57E-07  8.70E-05  1.41E-11  4.77E-09  0.00E+00  0.00E+00  2.57E-07  8.70E-05  8.44E-03  0.00002
   1842.    5.429  1.81E-07  6.14E-05  3.92E-12  1.33E-09  0.00E+00  0.00E+00  1.81E-07  6.14E-05  8.44E-03  0.00001
   1844.    5.423  1.02E-07  3.45E-05  1.72E-15  5.84E-13  0.00E+00  0.00E+00  1.02E-07  3.45E-05  8.44E-03  0.00000
   1846.    5.417  1.26E-07  4.30E-05  2.10E-14  7.16E-12  0.00E+00  0.00E+00  1.26E-07  4.30E-05  8.44E-03  0.00000
   1848.    5.411  1.88E-07  6.43E-05  7.25E-11  2.48E-08  0.00E+00  0.00E+00  1.88E-07  6.43E-05  8.44E-03  0.00010
   1850.    5.405  2.86E-07  9.80E-05  1.36E-09  4.64E-07  0.00E+00  0.00E+00  2.88E-07  9.84E-05  8.44E-03  0.00184
   1852.    5.400  3.28E-07  1.12E-04  4.91E-09  1.68E-06  0.00E+00  0.00E+00  3.33E-07  1.14E-04  8.44E-03  0.00672
   1854.    5.394  3.52E-07  1.21E-04  1.37E-08  4.70E-06  0.00E+00  0.00E+00  3.65E-07  1.26E-04  8.44E-03  0.01882
   1856.    5.388  3.49E-07  1.20E-04  1.51E-08  5.20E-06  0.00E+00  0.00E+00  3.64E-07  1.25E-04  8.44E-03  0.02087
   1858.    5.382  2.92E-07  1.01E-04  5.28E-09  1.82E-06  0.00E+00  0.00E+00  2.98E-07  1.03E-04  8.44E-03  0.00732
   1860.    5.376  2.72E-07  9.42E-05  1.41E-09  4.87E-07  0.00E+00  0.00E+00  2.74E-07  9.47E-05  8.44E-03  0.00198
   1862.    5.371  3.01E-07  1.04E-04  2.76E-09  9.55E-07  0.00E+00  0.00E+00  3.04E-07  1.05E-04  8.45E-03  0.00389
   1864.    5.365  2.68E-07  9.33E-05  1.51E-09  5.23E-07  0.00E+00  0.00E+00  2.70E-07  9.38E-05  8.45E-03  0.00213
   1866.    5.359  1.60E-07  5.57E-05  5.27E-11  1.83E-08  0.00E+00  0.00E+00  1.60E-07  5.57E-05  8.45E-03  0.00007
   1868.    5.353  9.13E-08  3.19E-05  2.55E-15  8.90E-13  0.00E+00  0.00E+00  9.13E-08  3.19E-05  8.45E-03  0.00000
   1870.    5.348  1.23E-07  4.31E-05  6.44E-12  2.25E-09  0.00E+00  0.00E+00  1.23E-07  4.31E-05  8.45E-03  0.00001
   1872.    5.342  2.48E-07  8.68E-05  2.46E-09  8.62E-07  0.00E+00  0.00E+00  2.50E-07  8.77E-05  8.45E-03  0.00361
   1874.    5.336  3.41E-07  1.20E-04  1.76E-08  6.19E-06  0.00E+00  0.00E+00  3.58E-07  1.26E-04  8.45E-03  0.02596
   1876.    5.330  3.50E-07  1.23E-04  3.51E-08  1.23E-05  0.00E+00  0.00E+00  3.85E-07  1.36E-04  8.45E-03  0.05195
   1878.    5.325  3.36E-07  1.19E-04  4.11E-08  1.45E-05  0.00E+00  0.00E+00  3.77E-07  1.33E-04  8.45E-03  0.06115
   1880.    5.319  3.35E-07  1.19E-04  5.17E-08  1.83E-05  0.00E+00  0.00E+00  3.87E-07  1.37E-04  8.45E-03  0.07755
   1882.    5.313  3.38E-07  1.20E-04  6.29E-08  2.23E-05  0.00E+00  0.00E+00  4.01E-07  1.42E-04  8.45E-03  0.09492
   1884.    5.308  2.66E-07  9.46E-05  2.06E-08  7.31E-06  0.00E+00  0.00E+00  2.87E-07  1.02E-04  8.45E-03  0.03114
   1886.    5.302  2.58E-07  9.17E-05  1.94E-09  6.91E-07  0.00E+00  0.00E+00  2.60E-07  9.24E-05  8.45E-03  0.00298
   1888.    5.297  2.22E-07  7.92E-05  1.37E-09  4.89E-07  0.00E+00  0.00E+00  2.23E-07  7.96E-05  8.45E-03  0.00211
   1890.    5.291  1.55E-07  5.53E-05  1.55E-10  5.53E-08  0.00E+00  0.00E+00  1.55E-07  5.54E-05  8.45E-03  0.00024
   1892.    5.285  2.33E-07  8.35E-05  7.06E-10  2.53E-07  0.00E+00  0.00E+00  2.34E-07  8.38E-05  8.45E-03  0.00110
   1894.    5.280  2.12E-07  7.62E-05  5.50E-10  1.97E-07  0.00E+00  0.00E+00  2.13E-07  7.64E-05  8.45E-03  0.00086
   1896.    5.274  2.09E-07  7.52E-05  5.39E-09  1.94E-06  0.00E+00  0.00E+00  2.15E-07  7.71E-05  8.45E-03  0.00857
   1898.    5.269  2.99E-07  1.08E-04  4.54E-08  1.63E-05  0.00E+00  0.00E+00  3.44E-07  1.24E-04  8.45E-03  0.07255
   1900.    5.263  3.13E-07  1.13E-04  8.78E-08  3.17E-05  0.00E+00  0.00E+00  4.00E-07  1.45E-04  8.46E-03  0.14094
  iv         1905
1                                             RADIANCE(WATTS/CM2-STER-XXX)
0  FREQ   WAVLEN    PATH THERMAL      SURFACE EMISSION    SURFACE REFLECTED     TOTAL RADIANCE   INTEGRAL    TOTAL
  (CM-1) (MICRN)    (CM-1)   (MICRN)    (CM-1)   (MICRN)    (CM-1)   (MICRN)    (CM-1)   (MICRN)    (CM-1)   TRANS

   1902.    5.258  2.90E-07  1.05E-04  5.26E-08  1.90E-05  0.00E+00  0.00E+00  3.42E-07  1.24E-04  8.46E-03  0.08485
   1904.    5.252  2.54E-07  9.19E-05  1.59E-08  5.78E-06  0.00E+00  0.00E+00  2.69E-07  9.77E-05  8.46E-03  0.02586
   1906.    5.247  2.39E-07  8.66E-05  7.70E-09  2.80E-06  0.00E+00  0.00E+00  2.46E-07  8.94E-05  8.46E-03  0.01261
   1908.    5.241  1.63E-07  5.93E-05  2.36E-09  8.60E-07  0.00E+00  0.00E+00  1.65E-07  6.02E-05  8.46E-03  0.00387
   1910.    5.236  1.66E-07  6.06E-05  2.11E-09  7.68E-07  0.00E+00  0.00E+00  1.68E-07  6.13E-05  8.46E-03  0.00352
   1912.    5.230  2.57E-07  9.38E-05  1.32E-08  4.84E-06  0.00E+00  0.00E+00  2.70E-07  9.86E-05  8.46E-03  0.02220
   1914.    5.225  2.75E-07  1.01E-04  1.49E-08  5.47E-06  0.00E+00  0.00E+00  2.90E-07  1.06E-04  8.46E-03  0.02509
   1916.    5.219  2.13E-07  7.84E-05  3.83E-09  1.41E-06  0.00E+00  0.00E+00  2.17E-07  7.98E-05  8.46E-03  0.00646
   1918.    5.214  1.23E-07  4.54E-05  1.13E-10  4.17E-08  0.00E+00  0.00E+00  1.24E-07  4.55E-05  8.46E-03  0.00019
   1920.    5.208  1.51E-07  5.56E-05  7.52E-12  2.77E-09  0.00E+00  0.00E+00  1.51E-07  5.56E-05  8.46E-03  0.00001
   1922.    5.203  1.40E-07  5.18E-05  6.81E-12  2.51E-09  0.00E+00  0.00E+00  1.40E-07  5.18E-05  8.46E-03  0.00001
   1924.    5.198  1.65E-07  6.12E-05  4.23E-09  1.57E-06  0.00E+00  0.00E+00  1.70E-07  6.28E-05  8.46E-03  0.00742
   1926.    5.192  2.65E-07  9.81E-05  3.69E-08  1.37E-05  0.00E+00  0.00E+00  3.01E-07  1.12E-04  8.46E-03  0.06487
   1928.    5.187  2.76E-07  1.03E-04  1.05E-07  3.90E-05  0.00E+00  0.00E+00  3.81E-07  1.42E-04  8.46E-03  0.18541
   1930.    5.181  2.56E-07  9.53E-05  1.51E-07  5.64E-05  0.00E+00  0.00E+00  4.07E-07  1.52E-04  8.46E-03  0.26925
   1932.    5.176  2.23E-07  8.34E-05  7.80E-08  2.91E-05  0.00E+00  0.00E+00  3.01E-07  1.12E-04  8.46E-03  0.13911
   1934.    5.171  2.23E-07  8.34E-05  5.90E-08  2.21E-05  0.00E+00  0.00E+00  2.82E-07  1.05E-04  8.46E-03  0.10668
   1936.    5.165  2.56E-07  9.60E-05  1.20E-07  4.49E-05  0.00E+00  0.00E+00  3.76E-07  1.41E-04  8.46E-03  0.21740
   1938.    5.160  2.73E-07  1.03E-04  8.81E-08  3.31E-05  0.00E+00  0.00E+00  3.61E-07  1.36E-04  8.47E-03  0.16072
   1940.    5.155  2.50E-07  9.41E-05  3.13E-08  1.18E-05  0.00E+00  0.00E+00  2.81E-07  1.06E-04  8.47E-03  0.05736
   1942.    5.149  1.52E-07  5.72E-05  2.62E-09  9.88E-07  0.00E+00  0.00E+00  1.54E-07  5.82E-05  8.47E-03  0.00482
   1944.    5.144  1.28E-07  4.85E-05  6.16E-12  2.33E-09  0.00E+00  0.00E+00  1.28E-07  4.85E-05  8.47E-03  0.00001
   1946.    5.139  1.64E-07  6.23E-05  8.25E-09  3.13E-06  0.00E+00  0.00E+00  1.73E-07  6.54E-05  8.47E-03  0.01560
   1948.    5.133  2.38E-07  9.04E-05  5.01E-08  1.90E-05  0.00E+00  0.00E+00  2.88E-07  1.09E-04  8.47E-03  0.09497
   1950.    5.128  2.50E-07  9.49E-05  1.12E-07  4.27E-05  0.00E+00  0.00E+00  3.62E-07  1.38E-04  8.47E-03  0.21402
   1952.    5.123  2.29E-07  8.74E-05  1.52E-07  5.78E-05  0.00E+00  0.00E+00  3.81E-07  1.45E-04  8.47E-03  0.29078
   1954.    5.118  2.22E-07  8.48E-05  6.89E-08  2.63E-05  0.00E+00  0.00E+00  2.91E-07  1.11E-04  8.47E-03  0.13245
   1956.    5.112  2.24E-07  8.58E-05  3.81E-08  1.46E-05  0.00E+00  0.00E+00  2.62E-07  1.00E-04  8.47E-03  0.07425
   1958.    5.107  2.30E-07  8.82E-05  1.18E-07  4.52E-05  0.00E+00  0.00E+00  3.48E-07  1.33E-04  8.47E-03  0.23118
   1960.    5.102  2.16E-07  8.30E-05  1.11E-07  4.25E-05  0.00E+00  0.00E+00  3.27E-07  1.26E-04  8.47E-03  0.21777
   1962.    5.097  2.29E-07  8.83E-05  7.88E-08  3.04E-05  0.00E+00  0.00E+00  3.08E-07  1.19E-04  8.47E-03  0.15670
   1964.    5.092  2.31E-07  8.89E-05  9.30E-08  3.59E-05  0.00E+00  0.00E+00  3.24E-07  1.25E-04  8.47E-03  0.18553
   1966.    5.086  1.68E-07  6.50E-05  2.19E-08  8.46E-06  0.00E+00  0.00E+00  1.90E-07  7.35E-05  8.47E-03  0.04380
   1968.    5.081  1.73E-07  6.70E-05  2.45E-08  9.48E-06  0.00E+00  0.00E+00  1.98E-07  7.65E-05  8.47E-03  0.04986
   1970.    5.076  2.09E-07  8.12E-05  1.35E-07  5.25E-05  0.00E+00  0.00E+00  3.45E-07  1.34E-04  8.47E-03  0.27688
   1972.    5.071  1.59E-07  6.18E-05  2.53E-07  9.85E-05  0.00E+00  0.00E+00  4.12E-07  1.60E-04  8.48E-03  0.52073
   1974.    5.066  1.41E-07  5.50E-05  2.67E-07  1.04E-04  0.00E+00  0.00E+00  4.08E-07  1.59E-04  8.48E-03  0.55094
   1976.    5.061  1.63E-07  6.37E-05  2.04E-07  7.97E-05  0.00E+00  0.00E+00  3.67E-07  1.43E-04  8.48E-03  0.42482
   1978.    5.056  1.42E-07  5.55E-05  2.56E-07  1.00E-04  0.00E+00  0.00E+00  3.98E-07  1.56E-04  8.48E-03  0.53674
   1980.    5.051  1.28E-07  5.01E-05  2.83E-07  1.11E-04  0.00E+00  0.00E+00  4.11E-07  1.61E-04  8.48E-03  0.59678
   1982.    5.045  1.42E-07  5.59E-05  2.57E-07  1.01E-04  0.00E+00  0.00E+00  3.99E-07  1.57E-04  8.48E-03  0.54694
   1984.    5.040  1.56E-07  6.14E-05  2.36E-07  9.29E-05  0.00E+00  0.00E+00  3.92E-07  1.54E-04  8.48E-03  0.50481
   1986.    5.035  1.89E-07  7.47E-05  1.33E-07  5.25E-05  0.00E+00  0.00E+00  3.22E-07  1.27E-04  8.48E-03  0.28607
   1988.    5.030  1.87E-07  7.39E-05  2.72E-08  1.07E-05  0.00E+00  0.00E+00  2.14E-07  8.46E-05  8.48E-03  0.05877
   1990.    5.025  1.79E-07  7.07E-05  7.27E-09  2.88E-06  0.00E+00  0.00E+00  1.86E-07  7.36E-05  8.48E-03  0.01590
   1992.    5.020  1.34E-07  5.33E-05  4.12E-09  1.63E-06  0.00E+00  0.00E+00  1.39E-07  5.50E-05  8.48E-03  0.00905
   1994.    5.015  1.77E-07  7.02E-05  5.58E-08  2.22E-05  0.00E+00  0.00E+00  2.32E-07  9.24E-05  8.48E-03  0.12415
   1996.    5.010  1.92E-07  7.65E-05  1.46E-07  5.83E-05  0.00E+00  0.00E+00  3.38E-07  1.35E-04  8.48E-03  0.32696
   1998.    5.005  1.87E-07  7.47E-05  1.05E-07  4.21E-05  0.00E+00  0.00E+00  2.92E-07  1.17E-04  8.48E-03  0.23643
   2000.    5.000  1.58E-07  6.32E-05  1.56E-07  6.24E-05  0.00E+00  0.00E+00  3.14E-07  1.26E-04  8.48E-03  0.35413
  iv         2005
1                                             RADIANCE(WATTS/CM2-STER-XXX)
0  FREQ   WAVLEN    PATH THERMAL      SURFACE EMISSION    SURFACE REFLECTED     TOTAL RADIANCE   INTEGRAL    TOTAL
  (CM-1) (MICRN)    (CM-1)   (MICRN)    (CM-1)   (MICRN)    (CM-1)   (MICRN)    (CM-1)   (MICRN)    (CM-1)   TRANS

   2002.    4.995  1.13E-07  4.51E-05  2.74E-07  1.10E-04  0.00E+00  0.00E+00  3.86E-07  1.55E-04  8.48E-03  0.62388
   2004.    4.990  9.93E-08  3.99E-05  2.91E-07  1.17E-04  0.00E+00  0.00E+00  3.90E-07  1.57E-04  8.49E-03  0.66773
   2006.    4.985  1.42E-07  5.73E-05  2.02E-07  8.14E-05  0.00E+00  0.00E+00  3.45E-07  1.39E-04  8.49E-03  0.46694
   2008.    4.980  1.78E-07  7.17E-05  9.11E-08  3.67E-05  0.00E+00  0.00E+00  2.69E-07  1.08E-04  8.49E-03  0.21193
   2010.    4.975  1.51E-07  6.09E-05  1.61E-07  6.52E-05  0.00E+00  0.00E+00  3.12E-07  1.26E-04  8.49E-03  0.37929
   2012.    4.970  1.18E-07  4.78E-05  2.49E-07  1.01E-04  0.00E+00  0.00E+00  3.67E-07  1.48E-04  8.49E-03  0.58750
   2014.    4.965  1.44E-07  5.84E-05  1.86E-07  7.53E-05  0.00E+00  0.00E+00  3.29E-07  1.34E-04  8.49E-03  0.44052
   2016.    4.960  1.51E-07  6.13E-05  5.02E-08  2.04E-05  0.00E+00  0.00E+00  2.01E-07  8.17E-05  8.49E-03  0.11965
   2018.    4.955  1.41E-07  5.76E-05  3.76E-09  1.53E-06  0.00E+00  0.00E+00  1.45E-07  5.91E-05  8.49E-03  0.00912
   2020.    4.950  1.69E-07  6.91E-05  7.12E-08  2.91E-05  0.00E+00  0.00E+00  2.41E-07  9.82E-05  8.49E-03  0.17368
   2022.    4.946  1.63E-07  6.67E-05  1.32E-07  5.38E-05  0.00E+00  0.00E+00  2.95E-07  1.21E-04  8.49E-03  0.32188
   2024.    4.941  1.59E-07  6.52E-05  1.39E-07  5.69E-05  0.00E+00  0.00E+00  2.98E-07  1.22E-04  8.49E-03  0.34237
   2026.    4.936  1.45E-07  5.94E-05  1.47E-07  6.02E-05  0.00E+00  0.00E+00  2.91E-07  1.20E-04  8.49E-03  0.36348
   2028.    4.931  1.14E-07  4.67E-05  1.91E-07  7.86E-05  0.00E+00  0.00E+00  3.05E-07  1.25E-04  8.49E-03  0.47868
   2030.    4.926  7.09E-08  2.92E-05  2.87E-07  1.18E-04  0.00E+00  0.00E+00  3.58E-07  1.47E-04  8.49E-03  0.72225
   2032.    4.921  6.72E-08  2.77E-05  2.87E-07  1.19E-04  0.00E+00  0.00E+00  3.54E-07  1.46E-04  8.49E-03  0.72726
   2034.    4.916  9.45E-08  3.91E-05  2.38E-07  9.83E-05  0.00E+00  0.00E+00  3.32E-07  1.37E-04  8.49E-03  0.60629
   2036.    4.912  9.75E-08  4.04E-05  2.13E-07  8.83E-05  0.00E+00  0.00E+00  3.11E-07  1.29E-04  8.50E-03  0.54743
   2038.    4.907  1.21E-07  5.01E-05  1.56E-07  6.48E-05  0.00E+00  0.00E+00  2.77E-07  1.15E-04  8.50E-03  0.40369
   2040.    4.902  1.36E-07  5.66E-05  9.51E-08  3.96E-05  0.00E+00  0.00E+00  2.31E-07  9.62E-05  8.50E-03  0.24748
   2042.    4.897  1.54E-07  6.43E-05  3.11E-08  1.30E-05  0.00E+00  0.00E+00  1.85E-07  7.73E-05  8.50E-03  0.08180
   2044.    4.892  1.34E-07  5.59E-05  9.11E-08  3.80E-05  0.00E+00  0.00E+00  2.25E-07  9.39E-05  8.50E-03  0.24152
   2046.    4.888  1.13E-07  4.75E-05  1.43E-07  6.00E-05  0.00E+00  0.00E+00  2.57E-07  1.08E-04  8.50E-03  0.38218
   2048.    4.883  9.58E-08  4.02E-05  1.59E-07  6.65E-05  0.00E+00  0.00E+00  2.54E-07  1.07E-04  8.50E-03  0.42565
   2050.    4.878  7.39E-08  3.11E-05  1.82E-07  7.64E-05  0.00E+00  0.00E+00  2.56E-07  1.07E-04  8.50E-03  0.49127
   2052.    4.873  7.76E-08  3.27E-05  1.64E-07  6.89E-05  0.00E+00  0.00E+00  2.41E-07  1.02E-04  8.50E-03  0.44519
   2054.    4.869  7.83E-08  3.30E-05  1.58E-07  6.65E-05  0.00E+00  0.00E+00  2.36E-07  9.96E-05  8.50E-03  0.43235
   2056.    4.864  7.13E-08  3.01E-05  1.67E-07  7.05E-05  0.00E+00  0.00E+00  2.38E-07  1.01E-04  8.50E-03  0.46055
   2058.    4.859  8.00E-08  3.39E-05  1.42E-07  6.01E-05  0.00E+00  0.00E+00  2.22E-07  9.39E-05  8.50E-03  0.39389
   2060.    4.854  9.71E-08  4.12E-05  9.18E-08  3.89E-05  0.00E+00  0.00E+00  1.89E-07  8.02E-05  8.50E-03  0.25687
   2062.    4.850  9.85E-08  4.19E-05  9.18E-08  3.91E-05  0.00E+00  0.00E+00  1.90E-07  8.09E-05  8.50E-03  0.25909
   2064.    4.845  1.01E-07  4.32E-05  4.10E-08  1.75E-05  0.00E+00  0.00E+00  1.42E-07  6.07E-05  8.50E-03  0.11590
   2066.    4.840  9.92E-08  4.23E-05  5.08E-08  2.17E-05  0.00E+00  0.00E+00  1.50E-07  6.40E-05  8.50E-03  0.14594
   2068.    4.836  8.15E-08  3.49E-05  1.26E-07  5.41E-05  0.00E+00  0.00E+00  2.08E-07  8.90E-05  8.50E-03  0.36491
   2070.    4.831  6.33E-08  2.71E-05  1.61E-07  6.89E-05  0.00E+00  0.00E+00  2.24E-07  9.61E-05  8.50E-03  0.46708
   2072.    4.826  7.57E-08  3.25E-05  1.42E-07  6.08E-05  0.00E+00  0.00E+00  2.17E-07  9.33E-05  8.50E-03  0.41338
   2074.    4.822  9.24E-08  3.98E-05  1.14E-07  4.92E-05  0.00E+00  0.00E+00  2.07E-07  8.89E-05  8.50E-03  0.33646
   2076.    4.817  6.82E-08  2.94E-05  8.50E-08  3.66E-05  0.00E+00  0.00E+00  1.53E-07  6.60E-05  8.50E-03  0.25144
   2078.    4.812  5.60E-08  2.42E-05  4.09E-08  1.77E-05  0.00E+00  0.00E+00  9.69E-08  4.18E-05  8.50E-03  0.12225
   2080.    4.808  7.18E-08  3.10E-05  1.05E-07  4.53E-05  0.00E+00  0.00E+00  1.77E-07  7.64E-05  8.50E-03  0.31564
   2082.    4.803  6.53E-08  2.83E-05  1.51E-07  6.56E-05  0.00E+00  0.00E+00  2.17E-07  9.39E-05  8.50E-03  0.45871
   2084.    4.798  5.04E-08  2.19E-05  1.82E-07  7.91E-05  0.00E+00  0.00E+00  2.32E-07  1.01E-04  8.51E-03  0.55569
   2086.    4.794  6.50E-08  2.83E-05  1.58E-07  6.87E-05  0.00E+00  0.00E+00  2.23E-07  9.70E-05  8.51E-03  0.48518
   2088.    4.789  8.76E-08  3.82E-05  1.15E-07  5.01E-05  0.00E+00  0.00E+00  2.02E-07  8.82E-05  8.51E-03  0.35522
   2090.    4.785  9.65E-08  4.21E-05  8.21E-08  3.59E-05  0.00E+00  0.00E+00  1.79E-07  7.80E-05  8.51E-03  0.25584
   2092.    4.780  8.33E-08  3.64E-05  1.05E-07  4.58E-05  0.00E+00  0.00E+00  1.88E-07  8.22E-05  8.51E-03  0.32887
   2094.    4.776  6.31E-08  2.77E-05  1.32E-07  5.80E-05  0.00E+00  0.00E+00  1.95E-07  8.57E-05  8.51E-03  0.41885
   2096.    4.771  5.31E-08  2.33E-05  1.71E-07  7.51E-05  0.00E+00  0.00E+00  2.24E-07  9.84E-05  8.51E-03  0.54449
   2098.    4.766  4.95E-08  2.18E-05  1.79E-07  7.89E-05  0.00E+00  0.00E+00  2.29E-07  1.01E-04  8.51E-03  0.57494
   2100.    4.762  5.12E-08  2.26E-05  1.74E-07  7.67E-05  0.00E+00  0.00E+00  2.25E-07  9.93E-05  8.51E-03  0.56245
  iv         2105
1                                             RADIANCE(WATTS/CM2-STER-XXX)
0  FREQ   WAVLEN    PATH THERMAL      SURFACE EMISSION    SURFACE REFLECTED     TOTAL RADIANCE   INTEGRAL    TOTAL
  (CM-1) (MICRN)    (CM-1)   (MICRN)    (CM-1)   (MICRN)    (CM-1)   (MICRN)    (CM-1)   (MICRN)    (CM-1)   TRANS

   2102.    4.757  3.54E-08  1.56E-05  2.02E-07  8.91E-05  0.00E+00  0.00E+00  2.37E-07  1.05E-04  8.51E-03  0.65643
   2104.    4.753  3.17E-08  1.40E-05  2.05E-07  9.07E-05  0.00E+00  0.00E+00  2.37E-07  1.05E-04  8.51E-03  0.67159
   2106.    4.748  5.16E-08  2.29E-05  1.63E-07  7.21E-05  0.00E+00  0.00E+00  2.14E-07  9.50E-05  8.51E-03  0.53645
   2108.    4.744  4.71E-08  2.09E-05  1.65E-07  7.32E-05  0.00E+00  0.00E+00  2.12E-07  9.41E-05  8.51E-03  0.54816
   2110.    4.739  2.89E-08  1.29E-05  2.07E-07  9.24E-05  0.00E+00  0.00E+00  2.36E-07  1.05E-04  8.51E-03  0.69535
   2112.    4.735  3.86E-08  1.72E-05  2.11E-07  9.40E-05  0.00E+00  0.00E+00  2.49E-07  1.11E-04  8.51E-03  0.71059
   2114.    4.730  8.12E-08  3.63E-05  1.18E-07  5.26E-05  0.00E+00  0.00E+00  1.99E-07  8.89E-05  8.51E-03  0.39926
   2116.    4.726  7.31E-08  3.27E-05  1.14E-07  5.11E-05  0.00E+00  0.00E+00  1.87E-07  8.39E-05  8.51E-03  0.39173
   2118.    4.721  3.05E-08  1.37E-05  1.81E-07  8.13E-05  0.00E+00  0.00E+00  2.12E-07  9.50E-05  8.51E-03  0.62556
   2120.    4.717  3.09E-08  1.39E-05  1.72E-07  7.73E-05  0.00E+00  0.00E+00  2.03E-07  9.11E-05  8.51E-03  0.59679
   2122.    4.713  4.24E-08  1.91E-05  1.53E-07  6.91E-05  0.00E+00  0.00E+00  1.96E-07  8.81E-05  8.51E-03  0.53651
   2124.    4.708  4.67E-08  2.11E-05  1.47E-07  6.62E-05  0.00E+00  0.00E+00  1.93E-07  8.73E-05  8.51E-03  0.51711
   2126.    4.704  3.08E-08  1.39E-05  1.79E-07  8.11E-05  0.00E+00  0.00E+00  2.10E-07  9.51E-05  8.51E-03  0.63760
   2128.    4.699  2.57E-08  1.17E-05  1.86E-07  8.43E-05  0.00E+00  0.00E+00  2.12E-07  9.59E-05  8.51E-03  0.66490
   2130.    4.695  3.19E-08  1.45E-05  1.79E-07  8.12E-05  0.00E+00  0.00E+00  2.11E-07  9.57E-05  8.51E-03  0.64453
   2132.    4.690  1.83E-08  8.30E-06  2.29E-07  1.04E-04  0.00E+00  0.00E+00  2.47E-07  1.12E-04  8.52E-03  0.83096
   2134.    4.686  2.46E-08  1.12E-05  2.27E-07  1.04E-04  0.00E+00  0.00E+00  2.52E-07  1.15E-04  8.52E-03  0.83032
   2136.    4.682  7.22E-08  3.29E-05  1.38E-07  6.30E-05  0.00E+00  0.00E+00  2.10E-07  9.59E-05  8.52E-03  0.50738
   2138.    4.677  8.97E-08  4.10E-05  1.12E-07  5.11E-05  0.00E+00  0.00E+00  2.02E-07  9.21E-05  8.52E-03  0.41489
   2140.    4.673  5.58E-08  2.56E-05  1.76E-07  8.08E-05  0.00E+00  0.00E+00  2.32E-07  1.06E-04  8.52E-03  0.65951
   2142.    4.669  2.35E-08  1.08E-05  2.30E-07  1.05E-04  0.00E+00  0.00E+00  2.53E-07  1.16E-04  8.52E-03  0.86426
   2144.    4.664  3.65E-08  1.68E-05  2.02E-07  9.30E-05  0.00E+00  0.00E+00  2.39E-07  1.10E-04  8.52E-03  0.76582
   2146.    4.660  5.64E-08  2.60E-05  1.69E-07  7.76E-05  0.00E+00  0.00E+00  2.25E-07  1.04E-04  8.52E-03  0.64321
   2148.    4.655  4.11E-08  1.90E-05  1.95E-07  8.99E-05  0.00E+00  0.00E+00  2.36E-07  1.09E-04  8.52E-03  0.74975
   2150.    4.651  2.30E-08  1.06E-05  2.22E-07  1.03E-04  0.00E+00  0.00E+00  2.45E-07  1.13E-04  8.52E-03  0.85892
   2152.    4.647  3.24E-08  1.50E-05  2.01E-07  9.33E-05  0.00E+00  0.00E+00  2.34E-07  1.08E-04  8.52E-03  0.78560
   2154.    4.643  3.15E-08  1.46E-05  2.01E-07  9.31E-05  0.00E+00  0.00E+00  2.32E-07  1.08E-04  8.52E-03  0.78862
   2156.    4.638  2.73E-08  1.27E-05  2.08E-07  9.66E-05  0.00E+00  0.00E+00  2.35E-07  1.09E-04  8.52E-03  0.82263
   2158.    4.634  2.31E-08  1.08E-05  2.12E-07  9.86E-05  0.00E+00  0.00E+00  2.35E-07  1.09E-04  8.52E-03  0.84432
   2160.    4.630  2.91E-08  1.36E-05  2.00E-07  9.33E-05  0.00E+00  0.00E+00  2.29E-07  1.07E-04  8.52E-03  0.80202
   2162.    4.625  5.46E-08  2.55E-05  1.53E-07  7.16E-05  0.00E+00  0.00E+00  2.08E-07  9.72E-05  8.52E-03  0.61955
   2164.    4.621  3.50E-08  1.64E-05  1.85E-07  8.66E-05  0.00E+00  0.00E+00  2.20E-07  1.03E-04  8.52E-03  0.75388
   2166.    4.617  1.69E-08  7.91E-06  2.13E-07  1.00E-04  0.00E+00  0.00E+00  2.30E-07  1.08E-04  8.52E-03  0.87543
   2168.    4.613  1.46E-08  6.86E-06  2.15E-07  1.01E-04  0.00E+00  0.00E+00  2.29E-07  1.08E-04  8.52E-03  0.88778
   2170.    4.608  2.13E-08  1.00E-05  2.01E-07  9.46E-05  0.00E+00  0.00E+00  2.22E-07  1.05E-04  8.52E-03  0.83624
   2172.    4.604  2.57E-08  1.21E-05  1.93E-07  9.08E-05  0.00E+00  0.00E+00  2.18E-07  1.03E-04  8.52E-03  0.80785
   2174.    4.600  1.71E-08  8.08E-06  2.05E-07  9.69E-05  0.00E+00  0.00E+00  2.22E-07  1.05E-04  8.52E-03  0.86630
   2176.    4.596  1.50E-08  7.08E-06  2.06E-07  9.76E-05  0.00E+00  0.00E+00  2.21E-07  1.05E-04  8.53E-03  0.87717
   2178.    4.591  1.46E-08  6.92E-06  2.05E-07  9.71E-05  0.00E+00  0.00E+00  2.19E-07  1.04E-04  8.53E-03  0.87727
   2180.    4.587  2.40E-08  1.14E-05  1.87E-07  8.90E-05  0.00E+00  0.00E+00  2.11E-07  1.00E-04  8.53E-03  0.80873
   2182.    4.583  2.38E-08  1.13E-05  1.86E-07  8.85E-05  0.00E+00  0.00E+00  2.10E-07  9.98E-05  8.53E-03  0.80843
   2184.    4.579  2.22E-08  1.06E-05  1.87E-07  8.93E-05  0.00E+00  0.00E+00  2.10E-07  9.99E-05  8.53E-03  0.82054
   2186.    4.575  3.54E-08  1.69E-05  1.64E-07  7.85E-05  0.00E+00  0.00E+00  2.00E-07  9.54E-05  8.53E-03  0.72493
   2188.    4.570  3.09E-08  1.48E-05  1.69E-07  8.11E-05  0.00E+00  0.00E+00  2.00E-07  9.59E-05  8.53E-03  0.75375
   2190.    4.566  1.91E-08  9.15E-06  1.87E-07  8.96E-05  0.00E+00  0.00E+00  2.06E-07  9.88E-05  8.53E-03  0.83696
   2192.    4.562  2.04E-08  9.82E-06  1.83E-07  8.78E-05  0.00E+00  0.00E+00  2.03E-07  9.76E-05  8.53E-03  0.82465
   2194.    4.558  2.23E-08  1.07E-05  1.78E-07  8.56E-05  0.00E+00  0.00E+00  2.00E-07  9.63E-05  8.53E-03  0.80840
   2196.    4.554  1.69E-08  8.16E-06  1.84E-07  8.88E-05  0.00E+00  0.00E+00  2.01E-07  9.69E-05  8.53E-03  0.84290
   2198.    4.550  2.10E-08  1.02E-05  1.76E-07  8.49E-05  0.00E+00  0.00E+00  1.97E-07  9.51E-05  8.53E-03  0.81040
   2200.    4.545  2.69E-08  1.30E-05  1.64E-07  7.94E-05  0.00E+00  0.00E+00  1.91E-07  9.24E-05  8.53E-03  0.76213
0INTEGRATED ABSORPTION FROM    2 TO 2200 CM-1 =   1681.33 CM-1
 AVERAGE TRANSMITTANCE =0.2351

0INTEGRATED RADIANCE =  8.530E-03 WATTS CM-2 STER-1
 MINIMUM RADIANCE    =  1.166E-09 WATTS CM-2 STER-1 (CM-1)-1 AT        2.0 CM-1
 MAXIMUM RADIANCE    =  1.219E-05 WATTS CM-2 STER-1 (CM-1)-1 AT      560.0 CM-1
 BOUNDARY TEMPERATURE =     288.95 K
 BOUNDARY EMISSIVITY =       0.971
0 CARD 5 *****    0


