*****  MODTRAN3 Version 1.3  12/1/95  *****
0 CARD 1  *****T   5    3    1    0    0    0    0    0    0    0    0    0   -1   0.000  -1.00
 co2mx co2rat ch4rat h2orat t_o3rat s_o3rat scalefreon    800.00000       2.4242425       1.0000000       1.0000000       1.0000000       1.0000000       1.0000000    
0 CARD 2  *****    0    0    0    0    0    0     0.000     0.000     0.000     0.000     0.000
0 CARD 3  *****    70.000     0.000   180.000     0.000     0.000     0.000    0
0 CARD 4  *****         2      2200         2         3
0 PROGRAM WILL COMPUTE RADIANCE                
0 ATMOSPHERIC MODEL
          TEMPERATURE =    5     SUBARCTIC   WINTER  
          WATER VAPOR =    5     SUBARCTIC   WINTER  
          OZONE       =    5     SUBARCTIC   WINTER  
                      M4 =     5 M5 =     5 M6 =     5 MDEF =     1
0 SLANT PATH TO SPACE
          H1    =     70.000 KM
          HMIN  =      0.000 KM
          ANGLE =    180.000 DEG
0 FREQUENCY RANGE
             IV1 =         2 CM-1  (   5000.00 MICROMETERS)
             IV2 =      2200 CM-1  (      4.55 MICROMETERS)
             IDV =         2 CM-1
           IFWHM =         3 CM-1
1
  ATMOSPHERIC PROFILES

   I     Z       P       T        N2       CNTMSLF MOL SCAT     N-1     O3 (UV)  O2 (UV)
        (KM)    (MB)    (K)            (MOL/CM2 KM)   (-)       (-)  (ATM CM/KM) (ATM CM/KM)

   1     0.00 1013.000  257.8  1.030E+00 7.103E+18 1.059E+00 3.045E-04 1.907E-03 4.157E+04
   2     1.00  887.800  259.7  7.795E-01 7.094E+18 9.214E-01 2.649E-04 1.908E-03 3.396E+04
   3     2.00  777.500  256.5  6.128E-01 4.365E+18 8.170E-01 2.349E-04 1.907E-03 2.864E+04
   4     3.00  679.800  253.3  4.804E-01 2.290E+18 7.234E-01 2.080E-04 2.000E-03 2.418E+04
   5     4.00  593.200  248.3  3.807E-01 8.361E+17 6.439E-01 1.852E-04 2.093E-03 2.064E+04
   6     5.00  515.800  241.5  3.042E-01 2.001E+17 5.757E-01 1.656E-04 2.187E-03 1.777E+04
   7     6.00  446.700  234.7  2.416E-01 4.835E+16 5.130E-01 1.475E-04 2.279E-03 1.528E+04
   8     7.00  385.300  227.9  1.906E-01 1.480E+16 4.557E-01 1.311E-04 3.302E-03 1.312E+04
   9     8.00  330.800  221.2  1.492E-01 6.183E+14 4.031E-01 1.159E-04 4.189E-03 1.124E+04
  10     9.00  282.900  217.8  1.125E-01 3.622E+14 3.501E-01 1.007E-04 7.347E-03 9.437E+03
  11    10.00  241.800  217.8  8.220E-02 1.195E+14 2.992E-01 8.606E-05 8.971E-03 7.802E+03
  12    11.00  206.700  217.8  6.007E-02 2.183E+13 2.558E-01 7.357E-05 8.947E-03 6.477E+03
  13    12.00  176.600  217.8  4.385E-02 5.738E+12 2.185E-01 6.285E-05 8.736E-03 5.392E+03
  14    13.00  151.000  217.8  3.206E-02 2.307E+12 1.869E-01 5.374E-05 1.214E-02 4.508E+03
  15    14.00  129.100  217.8  2.343E-02 1.725E+12 1.598E-01 4.595E-05 1.437E-02 3.779E+03
  16    15.00  110.300  217.8  1.710E-02 1.287E+12 1.365E-01 3.926E-05 1.637E-02 3.174E+03
  17    16.00   94.310  217.2  1.257E-02 9.679E+11 1.170E-01 3.366E-05 1.754E-02 2.682E+03
  18    17.00   80.580  216.6  9.230E-03 7.266E+11 1.003E-01 2.884E-05 1.904E-02 2.269E+03
  19    18.00   68.820  216.0  6.770E-03 5.449E+11 8.587E-02 2.470E-05 2.103E-02 1.921E+03
  20    19.00   58.750  215.4  4.961E-03 4.082E+11 7.351E-02 2.114E-05 2.277E-02 1.629E+03
  21    20.00   50.140  214.8  3.634E-03 3.055E+11 6.291E-02 1.809E-05 2.326E-02 1.383E+03
  22    21.00   42.770  214.2  2.659E-03 2.284E+11 5.382E-02 1.548E-05 2.151E-02 1.174E+03
  23    22.00   36.470  213.6  1.944E-03 1.706E+11 4.602E-02 1.324E-05 1.932E-02 9.979E+02
  24    23.00   31.090  213.0  1.421E-03 1.273E+11 3.934E-02 1.131E-05 1.769E-02 8.485E+02
  25    24.00   26.490  212.4  1.037E-03 9.494E+10 3.361E-02 9.668E-06 1.545E-02 7.217E+02
  26    25.00   22.560  211.8  7.567E-04 6.931E+10 2.871E-02 8.257E-06 1.348E-02 6.139E+02
  27    30.00   10.200  216.6  1.479E-04 1.346E+10 1.269E-02 3.650E-06 6.849E-03 2.679E+02
  28    35.00    4.701  222.9  2.967E-05 2.679E+09 5.684E-03 1.635E-06 3.522E-03 1.193E+02
  29    40.00    2.243  235.3  6.060E-06 5.400E+08 2.569E-03 7.389E-07 1.515E-03 5.378E+01
  30    45.00    1.113  247.6  1.348E-06 1.187E+08 1.212E-03 3.485E-07 4.964E-04 2.533E+01
  31    50.00    0.572  259.9  3.229E-07 2.761E+07 5.931E-04 1.706E-07 1.541E-04 1.239E+01
  32    70.00    0.040  246.0  1.763E-09 6.775E+04 4.383E-05 1.260E-08 2.190E-06 9.154E-01
  33   100.00    0.000  219.1  2.486E-13 1.443E-01 5.204E-07 1.497E-10 2.080E-08 8.320E-03
1
  ATMOSPHERIC PROFILES

   I     Z       P       T      CNTMFRN     HNO3    AEROSOL 1 AEROSOL 2 AEROSOL 3 AEROSOL 4 AER1*RH   CIRRUS         RH
        (KM)    (MB)    (K)   MOL/CM2 KM ATM CM/KM   (-)       (-)       (-)       (-)       (-)       (-)      (PERCNT)

   1     0.00 1013.000  257.8  4.810E+21 0.000E+00 0.000E+00 0.000E+00 0.000E+00 0.000E+00 0.000E+00 0.000E+00 8.009E+01
   2     1.00  887.800  259.7  4.180E+21 0.000E+00 0.000E+00 0.000E+00 0.000E+00 0.000E+00 0.000E+00 0.000E+00 6.899E+01
   3     2.00  777.500  256.5  2.908E+21 0.000E+00 0.000E+00 0.000E+00 0.000E+00 0.000E+00 0.000E+00 0.000E+00 6.960E+01
   4     3.00  679.800  253.3  1.866E+21 0.000E+00 0.000E+00 0.000E+00 0.000E+00 0.000E+00 0.000E+00 0.000E+00 6.531E+01
   5     4.00  593.200  248.3  1.004E+21 0.000E+00 0.000E+00 0.000E+00 0.000E+00 0.000E+00 0.000E+00 0.000E+00 6.007E+01
   6     5.00  515.800  241.5  4.392E+20 0.000E+00 0.000E+00 0.000E+00 0.000E+00 0.000E+00 0.000E+00 0.000E+00 5.376E+01
   7     6.00  446.700  234.7  1.924E+20 0.000E+00 0.000E+00 0.000E+00 0.000E+00 0.000E+00 0.000E+00 0.000E+00 5.035E+01
   8     7.00  385.300  227.9  9.456E+19 0.000E+00 0.000E+00 0.000E+00 0.000E+00 0.000E+00 0.000E+00 0.000E+00 5.553E+01
   9     8.00  330.800  221.2  1.710E+19 0.000E+00 0.000E+00 0.000E+00 0.000E+00 0.000E+00 0.000E+00 0.000E+00 2.352E+01
  10     9.00  282.900  217.8  1.137E+19 0.000E+00 0.000E+00 0.000E+00 0.000E+00 0.000E+00 0.000E+00 0.000E+00 2.658E+01
  11    10.00  241.800  217.8  5.582E+18 0.000E+00 0.000E+00 0.000E+00 0.000E+00 0.000E+00 0.000E+00 0.000E+00 1.527E+01
  12    11.00  206.700  217.8  2.039E+18 0.000E+00 0.000E+00 0.000E+00 0.000E+00 0.000E+00 0.000E+00 0.000E+00 6.525E+00
  13    12.00  176.600  217.8  8.932E+17 0.000E+00 0.000E+00 0.000E+00 0.000E+00 0.000E+00 0.000E+00 0.000E+00 3.345E+00
  14    13.00  151.000  217.8  4.843E+17 0.000E+00 0.000E+00 0.000E+00 0.000E+00 0.000E+00 0.000E+00 0.000E+00 2.121E+00
  15    14.00  129.100  217.8  3.580E+17 0.000E+00 0.000E+00 0.000E+00 0.000E+00 0.000E+00 0.000E+00 0.000E+00 1.834E+00
  16    15.00  110.300  217.8  2.642E+17 0.000E+00 0.000E+00 0.000E+00 0.000E+00 0.000E+00 0.000E+00 0.000E+00 1.584E+00
  17    16.00   94.310  217.2  1.965E+17 0.000E+00 0.000E+00 0.000E+00 0.000E+00 0.000E+00 0.000E+00 0.000E+00 1.474E+00
  18    17.00   80.580  216.6  1.458E+17 0.000E+00 0.000E+00 0.000E+00 0.000E+00 0.000E+00 0.000E+00 0.000E+00 1.371E+00
  19    18.00   68.820  216.0  1.082E+17 0.000E+00 0.000E+00 0.000E+00 0.000E+00 0.000E+00 0.000E+00 0.000E+00 1.274E+00
  20    19.00   58.750  215.4  8.014E+16 0.000E+00 0.000E+00 0.000E+00 0.000E+00 0.000E+00 0.000E+00 0.000E+00 1.185E+00
  21    20.00   50.140  214.8  5.934E+16 0.000E+00 0.000E+00 0.000E+00 0.000E+00 0.000E+00 0.000E+00 0.000E+00 1.102E+00
  22    21.00   42.770  214.2  4.389E+16 0.000E+00 0.000E+00 0.000E+00 0.000E+00 0.000E+00 0.000E+00 0.000E+00 1.024E+00
  23    22.00   36.470  213.6  3.243E+16 0.000E+00 0.000E+00 0.000E+00 0.000E+00 0.000E+00 0.000E+00 0.000E+00 9.525E-01
  24    23.00   31.090  213.0  2.396E+16 0.000E+00 0.000E+00 0.000E+00 0.000E+00 0.000E+00 0.000E+00 0.000E+00 8.857E-01
  25    24.00   26.490  212.4  1.767E+16 0.000E+00 0.000E+00 0.000E+00 0.000E+00 0.000E+00 0.000E+00 0.000E+00 8.235E-01
  26    25.00   22.560  211.8  1.290E+16 0.000E+00 0.000E+00 0.000E+00 0.000E+00 0.000E+00 0.000E+00 0.000E+00 7.580E-01
  27    30.00   10.200  216.6  2.513E+15 0.000E+00 0.000E+00 0.000E+00 0.000E+00 0.000E+00 0.000E+00 0.000E+00 1.865E-01
  28    35.00    4.701  222.9  5.020E+14 0.000E+00 0.000E+00 0.000E+00 0.000E+00 0.000E+00 0.000E+00 0.000E+00 4.049E-02
  29    40.00    2.243  235.3  1.019E+14 0.000E+00 0.000E+00 0.000E+00 0.000E+00 0.000E+00 0.000E+00 0.000E+00 5.018E-03
  30    45.00    1.113  247.6  2.252E+13 0.000E+00 0.000E+00 0.000E+00 0.000E+00 0.000E+00 0.000E+00 0.000E+00 7.603E-04
  31    50.00    0.572  259.9  5.317E+12 0.000E+00 0.000E+00 0.000E+00 0.000E+00 0.000E+00 0.000E+00 0.000E+00 1.340E-04
  32    70.00    0.040  246.0  1.947E+10 0.000E+00 0.000E+00 0.000E+00 0.000E+00 0.000E+00 0.000E+00 0.000E+00 2.088E-05
  33   100.00    0.000  219.1  3.373E+05 0.000E+00 0.000E+00 0.000E+00 0.000E+00 0.000E+00 0.000E+00 0.000E+00 4.563E-07
1
  ATMOSPHERIC PROFILES

   I      Z       P       T      H2O      O3       CO2      CO       CH4      N2O      O2       NH3      NO       NO2      SO2
         (KM)    (MB)    (K)  (                                    MBAR                                                       )
   1     0.00 1013.000  257.8  1.26E+00 1.80E-02 8.00E+02 0.00E+00 1.70E+00 0.00E+00 2.09E+05 0.00E+00 0.00E+00 0.00E+00 0.00E+00
   2     1.00  887.800  259.7  1.25E+00 2.07E-02 8.00E+02 0.00E+00 1.70E+00 0.00E+00 2.09E+05 0.00E+00 0.00E+00 0.00E+00 0.00E+00
   3     2.00  777.500  256.5  9.84E-01 2.34E-02 8.00E+02 0.00E+00 1.70E+00 0.00E+00 2.09E+05 0.00E+00 0.00E+00 0.00E+00 0.00E+00
   4     3.00  679.800  253.3  7.13E-01 2.77E-02 8.00E+02 0.00E+00 1.70E+00 0.00E+00 2.09E+05 0.00E+00 0.00E+00 0.00E+00 0.00E+00
   5     4.00  593.200  248.3  4.31E-01 3.25E-02 8.00E+02 0.00E+00 1.70E+00 0.00E+00 2.09E+05 0.00E+00 0.00E+00 0.00E+00 0.00E+00
   6     5.00  515.800  241.5  2.11E-01 3.80E-02 8.00E+02 0.00E+00 1.69E+00 0.00E+00 2.09E+05 0.00E+00 0.00E+00 0.00E+00 0.00E+00
   7     6.00  446.700  234.7  1.04E-01 4.45E-02 8.00E+02 0.00E+00 1.67E+00 0.00E+00 2.09E+05 0.00E+00 0.00E+00 0.00E+00 0.00E+00
   8     7.00  385.300  227.9  5.73E-02 7.25E-02 8.00E+02 0.00E+00 1.65E+00 0.00E+00 2.09E+05 0.00E+00 0.00E+00 0.00E+00 0.00E+00
   9     8.00  330.800  221.2  1.17E-02 1.04E-01 8.00E+02 0.00E+00 1.63E+00 0.00E+00 2.09E+05 0.00E+00 0.00E+00 0.00E+00 0.00E+00
  10     9.00  282.900  217.8  8.96E-03 2.10E-01 8.00E+02 0.00E+00 1.62E+00 0.00E+00 2.09E+05 0.00E+00 0.00E+00 0.00E+00 0.00E+00
  11    10.00  241.800  217.8  5.15E-03 3.00E-01 8.00E+02 0.00E+00 1.58E+00 0.00E+00 2.09E+05 0.00E+00 0.00E+00 0.00E+00 0.00E+00
  12    11.00  206.700  217.8  2.20E-03 3.50E-01 8.00E+02 0.00E+00 1.54E+00 0.00E+00 2.09E+05 0.00E+00 0.00E+00 0.00E+00 0.00E+00
  13    12.00  176.600  217.8  1.13E-03 4.00E-01 8.00E+02 0.00E+00 1.51E+00 0.00E+00 2.09E+05 0.00E+00 0.00E+00 0.00E+00 0.00E+00
  14    13.00  151.000  217.8  7.16E-04 6.50E-01 8.00E+02 0.00E+00 1.47E+00 0.00E+00 2.09E+05 0.00E+00 0.00E+00 0.00E+00 0.00E+00
  15    14.00  129.100  217.8  6.19E-04 9.00E-01 8.00E+02 0.00E+00 1.43E+00 0.00E+00 2.09E+05 0.00E+00 0.00E+00 0.00E+00 0.00E+00
  16    15.00  110.300  217.8  5.34E-04 1.20E+00 8.00E+02 0.00E+00 1.39E+00 0.00E+00 2.09E+05 0.00E+00 0.00E+00 0.00E+00 0.00E+00
  17    16.00   94.310  217.2  4.63E-04 1.50E+00 8.00E+02 0.00E+00 1.34E+00 0.00E+00 2.09E+05 0.00E+00 0.00E+00 0.00E+00 0.00E+00
  18    17.00   80.580  216.6  4.02E-04 1.90E+00 8.00E+02 0.00E+00 1.29E+00 0.00E+00 2.09E+05 0.00E+00 0.00E+00 0.00E+00 0.00E+00
  19    18.00   68.820  216.0  3.48E-04 2.45E+00 8.00E+02 0.00E+00 1.23E+00 0.00E+00 2.09E+05 0.00E+00 0.00E+00 0.00E+00 0.00E+00
  20    19.00   58.750  215.4  3.01E-04 3.10E+00 8.00E+02 0.00E+00 1.16E+00 0.00E+00 2.09E+05 0.00E+00 0.00E+00 0.00E+00 0.00E+00
  21    20.00   50.140  214.8  2.60E-04 3.70E+00 8.00E+02 0.00E+00 1.08E+00 0.00E+00 2.09E+05 0.00E+00 0.00E+00 0.00E+00 0.00E+00
  22    21.00   42.770  214.2  2.25E-04 4.00E+00 8.00E+02 0.00E+00 1.01E+00 0.00E+00 2.09E+05 0.00E+00 0.00E+00 0.00E+00 0.00E+00
  23    22.00   36.470  213.6  1.95E-04 4.20E+00 8.00E+02 0.00E+00 9.56E-01 0.00E+00 2.09E+05 0.00E+00 0.00E+00 0.00E+00 0.00E+00
  24    23.00   31.090  213.0  1.68E-04 4.50E+00 8.00E+02 0.00E+00 9.01E-01 0.00E+00 2.09E+05 0.00E+00 0.00E+00 0.00E+00 0.00E+00
  25    24.00   26.490  212.4  1.45E-04 4.60E+00 8.00E+02 0.00E+00 8.48E-01 0.00E+00 2.09E+05 0.00E+00 0.00E+00 0.00E+00 0.00E+00
  26    25.00   22.560  211.8  1.24E-04 4.70E+00 8.00E+02 0.00E+00 7.96E-01 0.00E+00 2.09E+05 0.00E+00 0.00E+00 0.00E+00 0.00E+00
  27    30.00   10.200  216.6  5.46E-05 5.40E+00 8.00E+02 0.00E+00 6.94E-01 0.00E+00 2.09E+05 0.00E+00 0.00E+00 0.00E+00 0.00E+00
  28    35.00    4.701  222.9  2.44E-05 6.20E+00 8.00E+02 0.00E+00 5.88E-01 0.00E+00 2.09E+05 0.00E+00 0.00E+00 0.00E+00 0.00E+00
  29    40.00    2.243  235.3  1.09E-05 5.90E+00 8.00E+02 0.00E+00 4.51E-01 0.00E+00 2.09E+05 0.00E+00 0.00E+00 0.00E+00 0.00E+00
  30    45.00    1.113  247.6  5.13E-06 4.10E+00 8.00E+02 0.00E+00 3.00E-01 0.00E+00 2.09E+05 0.00E+00 0.00E+00 0.00E+00 0.00E+00
  31    50.00    0.572  259.9  2.47E-06 2.60E+00 8.00E+02 0.00E+00 1.98E-01 0.00E+00 2.09E+05 0.00E+00 0.00E+00 0.00E+00 0.00E+00
  32    70.00    0.040  246.0  1.23E-07 5.00E-01 8.00E+02 0.00E+00 1.50E-01 0.00E+00 2.09E+05 0.00E+00 0.00E+00 0.00E+00 0.00E+00
  33   100.00    0.000  219.1  1.79E-10 4.00E-01 4.73E+02 0.00E+00 1.20E-01 0.00E+00 1.60E+05 0.00E+00 0.00E+00 0.00E+00 0.00E+00
1
  ATMOSPHERIC PROFILES

   I      Z       P       T     CFC-11   CFC-12   CFC-13   CFC-14   CFC-22   CFC-113  CFC-114  CFC-115  CLONO2    HNO4    CHCL2F 
                                 CCL4     N2O5  
         (KM)    (MB)    (K)  (                                 ATM CM/KM                                                     )
   1     0.00 1013.000  257.8  1.48E-05 2.54E-05 1.06E-13 1.06E-13 6.35E-06 2.01E-06 1.27E-06 1.06E-13 6.09E-07 4.59E-08 1.06E-13
                               1.38E-05 2.56E-11
   2     1.00  887.800  259.7  1.29E-05 2.21E-05 9.21E-14 9.21E-14 5.52E-06 1.75E-06 1.10E-06 9.21E-14 4.72E-07 1.97E-07 9.21E-14
                               1.20E-05 8.78E-11
   3     2.00  777.500  256.5  1.14E-05 1.96E-05 8.16E-14 8.16E-14 4.89E-06 1.55E-06 9.80E-07 8.16E-14 3.68E-07 3.13E-07 8.16E-14
                               1.06E-05 1.36E-10
   4     3.00  679.800  253.3  1.01E-05 1.73E-05 7.23E-14 7.23E-14 4.33E-06 1.37E-06 8.67E-07 7.23E-14 2.81E-07 4.00E-07 7.23E-14
                               9.40E-06 1.72E-10
   5     4.00  593.200  248.3  9.01E-06 1.54E-05 6.43E-14 6.43E-14 3.85E-06 1.22E-06 7.72E-07 6.43E-14 2.10E-07 4.66E-07 6.43E-14
                               8.37E-06 1.99E-10
   6     5.00  515.800  241.5  8.05E-06 1.38E-05 5.75E-14 5.75E-14 3.44E-06 1.09E-06 6.90E-07 5.75E-14 1.58E-07 1.04E-06 5.75E-14
                               7.47E-06 2.08E-10
   7     6.00  446.700  234.7  7.18E-06 1.23E-05 5.13E-14 5.13E-14 3.06E-06 9.74E-07 6.15E-07 5.13E-14 1.15E-07 1.49E-06 5.13E-14
                               6.64E-06 2.11E-10
   8     7.00  385.300  227.9  6.38E-06 1.09E-05 4.55E-14 4.55E-14 2.72E-06 8.65E-07 5.46E-07 4.55E-14 7.95E-08 1.82E-06 4.55E-14
                               5.89E-06 2.11E-10
   9     8.00  330.800  221.2  5.64E-06 9.67E-06 4.03E-14 4.03E-14 2.40E-06 7.65E-07 4.83E-07 4.03E-14 4.99E-08 2.05E-06 4.03E-14
                               5.20E-06 2.08E-10
  10     9.00  282.900  217.8  4.89E-06 8.39E-06 3.50E-14 3.50E-14 2.09E-06 6.64E-07 4.20E-07 3.50E-14 4.23E-08 1.72E-06 3.50E-14
                               4.51E-06 2.02E-10
  11    10.00  241.800  217.8  4.17E-06 7.16E-06 2.99E-14 2.99E-14 1.78E-06 5.67E-07 3.59E-07 2.99E-14 3.51E-08 1.41E-06 2.99E-14
                               3.86E-06 1.90E-10
  12    11.00  206.700  217.8  3.56E-06 6.12E-06 2.56E-14 2.56E-14 1.52E-06 4.84E-07 3.07E-07 2.56E-14 2.92E-08 1.16E-06 2.56E-14
                               3.30E-06 1.78E-10
  13    12.00  176.600  217.8  3.04E-06 5.22E-06 2.18E-14 2.18E-14 1.30E-06 4.13E-07 2.62E-07 2.18E-14 2.42E-08 9.54E-07 2.18E-14
                               2.82E-06 1.65E-10
  14    13.00  151.000  217.8  2.52E-06 4.40E-06 1.87E-14 1.87E-14 1.10E-06 3.46E-07 2.22E-07 1.87E-14 1.50E-07 1.06E-06 1.87E-14
                               2.33E-06 8.23E-09
  15    14.00  129.100  217.8  2.09E-06 3.70E-06 1.60E-14 1.60E-14 9.32E-07 2.91E-07 1.88E-07 1.60E-14 2.38E-07 1.11E-06 1.60E-14
                               1.93E-06 1.40E-08
  16    15.00  110.300  217.8  1.73E-06 3.12E-06 1.36E-14 1.36E-14 7.88E-07 2.43E-07 1.59E-07 1.36E-14 2.97E-07 1.12E-06 1.36E-14
                               1.60E-06 1.78E-08
  17    16.00   94.310  217.2  1.44E-06 2.63E-06 1.17E-14 1.17E-14 6.69E-07 2.05E-07 1.34E-07 1.17E-14 3.36E-07 1.11E-06 1.17E-14
                               1.32E-06 2.03E-08
  18    17.00   80.580  216.6  1.13E-06 2.15E-06 1.00E-14 1.00E-14 5.57E-07 1.66E-07 1.12E-07 1.00E-14 1.02E-06 1.43E-06 1.00E-14
                               1.02E-06 8.80E-08
  19    18.00   68.820  216.0  8.72E-07 1.75E-06 8.58E-15 8.58E-15 4.64E-07 1.33E-07 9.31E-08 8.58E-15 1.50E-06 1.63E-06 8.58E-15
                               7.78E-07 1.36E-07
  20    19.00   58.750  215.4  6.68E-07 1.43E-06 7.35E-15 7.35E-15 3.86E-07 1.07E-07 7.74E-08 7.35E-15 1.82E-06 1.74E-06 7.35E-15
                               5.83E-07 1.68E-07
  21    20.00   50.140  214.8  5.04E-07 1.16E-06 6.29E-15 6.29E-15 3.20E-07 8.55E-08 6.41E-08 6.29E-15 2.01E-06 1.79E-06 6.29E-15
                               4.29E-07 1.88E-07
  22    21.00   42.770  214.2  3.69E-07 9.20E-07 5.38E-15 5.38E-15 2.63E-07 6.66E-08 5.25E-08 5.38E-15 2.47E-06 1.89E-06 5.38E-15
                               3.07E-07 2.23E-07
  23    22.00   36.470  213.6  2.63E-07 7.27E-07 4.60E-15 4.60E-15 2.16E-07 5.13E-08 4.28E-08 4.60E-15 2.76E-06 1.92E-06 4.60E-15
                               2.12E-07 2.44E-07
  24    23.00   31.090  213.0  1.79E-07 5.70E-07 3.93E-15 3.93E-15 1.77E-07 3.90E-08 3.49E-08 3.93E-15 2.91E-06 1.91E-06 3.93E-15
                               1.38E-07 2.54E-07
  25    24.00   26.490  212.4  1.14E-07 4.43E-07 3.36E-15 3.36E-15 1.44E-07 2.93E-08 2.83E-08 3.36E-15 2.96E-06 1.85E-06 3.36E-15
                               8.06E-08 2.56E-07
  26    25.00   22.560  211.8  7.83E-08 3.41E-07 2.87E-15 2.87E-15 1.17E-07 2.18E-08 2.28E-08 2.87E-15 2.79E-06 1.67E-06 2.87E-15
                               5.41E-08 2.21E-07
  27    30.00   10.200  216.6  4.95E-09 7.46E-08 1.27E-15 1.27E-15 3.84E-08 3.70E-09 7.15E-09 1.27E-15 1.45E-06 6.47E-07 1.27E-15
                               2.23E-09 7.00E-08
  28    35.00    4.701  222.9  1.13E-10 1.21E-08 5.68E-16 5.68E-16 1.18E-08 4.07E-10 2.08E-09 5.68E-16 2.98E-07 8.34E-08 5.68E-16
                               2.25E-11 6.15E-09
  29    40.00    2.243  235.3  4.75E-13 1.56E-09 2.57E-16 2.57E-16 3.57E-09 3.16E-11 5.96E-10 2.57E-16 1.10E-08 2.56E-09 2.57E-16
                               1.02E-14 5.47E-11
  30    45.00    1.113  247.6  1.11E-14 2.58E-10 1.21E-16 1.21E-16 1.26E-09 3.89E-12 1.96E-10 1.21E-16 2.03E-10 1.06E-10 1.21E-16
                               6.75E-17 4.77E-13
  31    50.00    0.572  259.9  3.54E-16 5.05E-11 5.93E-17 5.93E-17 5.20E-10 5.87E-13 7.41E-11 5.93E-17 2.77E-12 4.52E-12 5.93E-17
                               6.48E-19 3.73E-15
  32    70.00    0.040  246.0  2.23E-21 1.71E-13 4.38E-18 4.38E-18 3.15E-11 7.70E-16 2.56E-12 4.38E-18 3.17E-19 1.41E-16 4.38E-18
                               4.32E-26 3.59E-23
  33   100.00    0.000  219.1  1.62E-30 1.29E-18 5.20E-20 5.20E-20 9.31E-14 6.81E-22 1.11E-15 5.20E-20 4.20E-35 1.73E-31 5.20E-20
                               2.65E-38 0.00E+00


 CASE 3A: GIVEN H1,H2=SPACE,ANGLE



 TANGENT PATH WITH H1 =     70.000 AND ANGLE =    180.000 INTERSECTS THE EARTH

          H2 HAS BEEN RESET TO 0.0 AND LEN TO 0



 SLANT PATH PARAMETERS IN STANDARD FORM

          H1      =     70.000 KM
          H2      =      0.000 KM
          ANGLE   =    180.000 DEG
          PHI     =      0.000 DEG
          HMIN    =      0.000 KM
          LEN     =          0
1CALCULATION OF THE REFRACTED PATH THROUGH THE ATMOSPHERE


  I       ALTITUDE        THETA  DRANGE    RANGE    DBETA     BETA     PHI     DBEND  BENDING    PBAR    TBAR   RHOBAR
      FROM       TO
      (KM)      (KM)      (DEG)    (KM)     (KM)    (DEG)    (DEG)    (DEG)    (DEG)    (DEG)    (MB)    (K)  (GM CM-3)

          H2 TO H1

  1    0.000    1.000    0.000    1.000    1.000    0.000    0.000  180.000    0.000    0.000  950.476  258.77 1.28E-03
  2    1.000    2.000    0.000    1.000    2.000    0.000    0.000  180.000    0.000    0.000  832.536  258.17 1.12E-03
  3    2.000    3.000    0.000    1.000    3.000    0.000    0.000  180.000    0.000    0.000  728.548  254.97 9.94E-04
  4    3.000    4.000    0.000    1.000    4.000    0.000    0.000  180.000    0.000    0.000  636.356  250.88 8.82E-04
  5    4.000    5.000    0.000    1.000    5.000    0.000    0.000  180.000    0.000    0.000  554.321  244.99 7.87E-04
  6    5.000    6.000    0.000    1.000    6.000    0.000    0.000  180.000    0.000    0.000  481.086  238.19 7.03E-04
  7    6.000    7.000    0.000    1.000    7.000    0.000    0.000  180.000    0.000    0.000  415.850  231.39 6.25E-04
  8    7.000    8.000    0.000    1.000    8.000    0.000    0.000  180.000    0.000    0.000  357.915  224.64 5.54E-04
  9    8.000    9.000    0.000    1.000    9.000    0.000    0.000  180.000    0.000    0.000  306.788  219.58 4.86E-04
 10    9.000   10.000    0.000    1.000   10.000    0.000    0.000  180.000    0.000    0.000  262.350  217.84 4.19E-04
 11   10.000   11.000    0.000    1.000   11.000    0.000    0.000  180.000    0.000    0.000  224.250  217.84 3.58E-04
 12   11.000   12.000    0.000    1.000   12.000    0.000    0.000  180.000    0.000    0.000  191.650  217.84 3.06E-04
 13   12.000   13.000    0.000    1.000   13.000    0.000    0.000  180.000    0.000    0.000  163.800  217.84 2.61E-04
 14   13.000   14.000    0.000    1.000   14.000    0.000    0.000  180.000    0.000    0.000  140.050  217.84 2.24E-04
 15   14.000   15.000    0.000    1.000   15.000    0.000    0.000  180.000    0.000    0.000  119.700  217.84 1.91E-04
 16   15.000   16.000    0.000    1.000   16.000    0.000    0.000  180.000    0.000    0.000  102.301  217.55 1.63E-04
 17   16.000   17.000    0.000    1.000   17.000    0.000    0.000  180.000    0.000    0.000   87.442  216.95 1.40E-04
 18   17.000   18.000    0.000    1.000   18.000    0.000    0.000  180.000    0.000    0.000   74.697  216.35 1.20E-04
 19   18.000   19.000    0.000    1.000   19.000    0.000    0.000  180.000    0.000    0.000   63.783  215.75 1.03E-04
 20   19.000   20.000    0.000    1.000   20.000    0.000    0.000  180.000    0.000    0.000   54.443  215.15 8.80E-05
 21   20.000   21.000    0.000    1.000   21.000    0.000    0.000  180.000    0.000    0.000   46.453  214.55 7.53E-05
 22   21.000   22.000    0.000    1.000   22.000    0.000    0.000  180.000    0.000    0.000   39.619  213.95 6.44E-05
 23   22.000   23.000    0.000    1.000   23.000    0.000    0.000  180.000    0.000    0.000   33.779  213.35 5.50E-05
 24   23.000   24.000    0.000    1.000   24.000    0.000    0.000  180.000    0.000    0.000   28.789  212.75 4.70E-05
 25   24.000   25.000    0.000    1.000   25.000    0.000    0.000  180.000    0.000    0.000   24.524  212.15 4.02E-05
 26   25.000   30.000    0.000    5.000   30.000    0.000    0.000  180.000    0.000    0.000   16.403  213.91 2.54E-05
 27   30.000   35.000    0.000    5.000   35.000    0.000    0.000  180.000    0.000    0.000    7.463  219.36 1.13E-05
 28   35.000   40.000    0.000    5.000   40.000    0.000    0.000  180.000    0.000    0.000    3.483  228.27 5.07E-06
 29   40.000   45.000    0.000    5.000   45.000    0.000    0.000  180.000    0.000    0.000    1.683  240.67 2.33E-06
 30   45.000   50.000    0.000    5.000   50.000    0.000    0.000  180.000    0.000    0.000    0.845  253.01 1.12E-06
 31   50.000   70.000    0.000   20.000   70.000    0.000    0.000  180.000    0.000    0.000    0.304  255.66 2.72E-07




1CUMULATIVE ABSORBER AMOUNTS FOR THE PATH FROM H1 TO Z

  J     Z        TBAR     HNO3        O3 UV      CNTMSLF1   CNTMSLF2    CNTMFRN      O2
       (KM)       (K)   (ATM CM)    (ATM CM)    (MOL CM-2)  (MOL CM-2)  (MOL CM-2)(MOL CM-2)

  1   50.000   255.66   0.000E+00   7.143E-04   9.165E+07   1.027E+08   1.889E+13   8.811E+01
  2   45.000   253.01   0.000E+00   2.177E-03   4.039E+08   4.756E+08   7.848E+13   1.786E+02
  3   40.000   240.67   0.000E+00   6.742E-03   1.794E+09   2.612E+09   3.414E+14   3.675E+02
  4   35.000   228.27   0.000E+00   1.864E-02   8.472E+09   1.517E+10   1.596E+15   7.787E+02
  5   30.000   219.36   0.000E+00   4.365E-02   4.187E+10   8.627E+10   7.838E+15   1.697E+03
  6   25.000   213.91   0.000E+00   9.262E-02   2.123E+11   4.748E+11   3.958E+16   3.783E+03
  7   24.000   212.15   0.000E+00   1.071E-01   2.937E+11   6.645E+11   5.474E+16   4.450E+03
  8   23.000   212.75   0.000E+00   1.236E-01   4.041E+11   9.197E+11   7.540E+16   5.233E+03
  9   22.000   213.35   0.000E+00   1.421E-01   5.520E+11   1.259E+12   1.034E+17   6.154E+03
 10   21.000   213.95   0.000E+00   1.625E-01   7.501E+11   1.711E+12   1.412E+17   7.238E+03
 11   20.000   214.55   0.000E+00   1.849E-01   1.015E+12   2.311E+12   1.925E+17   8.513E+03
 12   19.000   215.15   0.000E+00   2.079E-01   1.370E+12   3.107E+12   2.617E+17   1.002E+04
 13   18.000   215.75   0.000E+00   2.298E-01   1.843E+12   4.162E+12   3.551E+17   1.179E+04
 14   17.000   216.35   0.000E+00   2.498E-01   2.474E+12   5.558E+12   4.812E+17   1.388E+04
 15   16.000   216.95   0.000E+00   2.681E-01   3.316E+12   7.406E+12   6.511E+17   1.635E+04
 16   15.000   217.55   0.000E+00   2.851E-01   4.436E+12   9.847E+12   8.798E+17   1.927E+04
 17   14.000   217.84   0.000E+00   3.004E-01   5.931E+12   1.309E+13   1.189E+18   2.274E+04
 18   13.000   217.84   0.000E+00   3.137E-01   7.933E+12   1.744E+13   1.607E+18   2.687E+04
 19   12.000   217.84   0.000E+00   3.241E-01   1.170E+13   2.562E+13   2.275E+18   3.181E+04
 20   11.000   217.84   0.000E+00   3.330E-01   2.374E+13   5.177E+13   3.663E+18   3.772E+04
 21   10.000   217.84   0.000E+00   3.419E-01   8.120E+13   1.765E+14   7.181E+18   4.484E+04
 22    9.000   217.84   0.000E+00   3.501E-01   3.001E+14   6.518E+14   1.532E+19   5.344E+04
 23    8.000   219.58   0.000E+00   3.559E-01   7.790E+14   1.668E+15   2.936E+19   6.375E+04
 24    7.000   224.64   0.000E+00   3.596E-01   5.244E+15   1.052E+16   7.465E+19   7.590E+04
 25    6.000   231.39   0.000E+00   3.624E-01   3.358E+16   6.138E+16   2.124E+20   9.007E+04
 26    5.000   238.19   0.000E+00   3.646E-01   1.404E+17   2.330E+17   5.115E+20   1.066E+05
 27    4.000   244.99   0.000E+00   3.668E-01   5.852E+17   8.633E+17   1.195E+21   1.257E+05
 28    3.000   250.88   0.000E+00   3.688E-01   2.028E+18   2.672E+18   2.585E+21   1.481E+05
 29    2.000   254.97   0.000E+00   3.708E-01   5.245E+18   6.338E+18   4.934E+21   1.744E+05
 30    1.000   258.17   0.000E+00   3.727E-01   1.086E+19   1.224E+19   8.440E+21   2.057E+05
 31    0.000   258.77   0.000E+00   3.746E-01   1.796E+19   1.959E+19   1.293E+22   2.433E+05



1 J     Z       N2 CONT    MOL SCAT       AER 1       AER 2       AER 3       AER 4       CIRRUS
       (KM)

  1   50.000   1.233E-06   4.217E-03   0.000E+00   0.000E+00   0.000E+00   0.000E+00   0.000E+00
  2   45.000   4.819E-06   8.546E-03   0.000E+00   0.000E+00   0.000E+00   0.000E+00   0.000E+00
  3   40.000   2.049E-05   1.758E-02   0.000E+00   0.000E+00   0.000E+00   0.000E+00   0.000E+00
  4   35.000   9.481E-05   3.719E-02   0.000E+00   0.000E+00   0.000E+00   0.000E+00   0.000E+00
  5   30.000   4.628E-04   8.081E-02   0.000E+00   0.000E+00   0.000E+00   0.000E+00   0.000E+00
  6   25.000   2.327E-03   1.789E-01   0.000E+00   0.000E+00   0.000E+00   0.000E+00   0.000E+00
  7   24.000   3.217E-03   2.100E-01   0.000E+00   0.000E+00   0.000E+00   0.000E+00   0.000E+00
  8   23.000   4.436E-03   2.464E-01   0.000E+00   0.000E+00   0.000E+00   0.000E+00   0.000E+00
  9   22.000   6.105E-03   2.890E-01   0.000E+00   0.000E+00   0.000E+00   0.000E+00   0.000E+00
 10   21.000   8.388E-03   3.388E-01   0.000E+00   0.000E+00   0.000E+00   0.000E+00   0.000E+00
 11   20.000   1.151E-02   3.971E-01   0.000E+00   0.000E+00   0.000E+00   0.000E+00   0.000E+00
 12   19.000   1.577E-02   4.652E-01   0.000E+00   0.000E+00   0.000E+00   0.000E+00   0.000E+00
 13   18.000   2.159E-02   5.447E-01   0.000E+00   0.000E+00   0.000E+00   0.000E+00   0.000E+00
 14   17.000   2.953E-02   6.376E-01   0.000E+00   0.000E+00   0.000E+00   0.000E+00   0.000E+00
 15   16.000   4.034E-02   7.460E-01   0.000E+00   0.000E+00   0.000E+00   0.000E+00   0.000E+00
 16   15.000   5.507E-02   8.725E-01   0.000E+00   0.000E+00   0.000E+00   0.000E+00   0.000E+00
 17   14.000   7.517E-02   1.020E+00   0.000E+00   0.000E+00   0.000E+00   0.000E+00   0.000E+00
 18   13.000   1.027E-01   1.193E+00   0.000E+00   0.000E+00   0.000E+00   0.000E+00   0.000E+00
 19   12.000   1.403E-01   1.396E+00   0.000E+00   0.000E+00   0.000E+00   0.000E+00   0.000E+00
 20   11.000   1.919E-01   1.632E+00   0.000E+00   0.000E+00   0.000E+00   0.000E+00   0.000E+00
 21   10.000   2.624E-01   1.909E+00   0.000E+00   0.000E+00   0.000E+00   0.000E+00   0.000E+00
 22    9.000   3.590E-01   2.233E+00   0.000E+00   0.000E+00   0.000E+00   0.000E+00   0.000E+00
 23    8.000   4.890E-01   2.609E+00   0.000E+00   0.000E+00   0.000E+00   0.000E+00   0.000E+00
 24    7.000   6.580E-01   3.038E+00   0.000E+00   0.000E+00   0.000E+00   0.000E+00   0.000E+00
 25    6.000   8.731E-01   3.522E+00   0.000E+00   0.000E+00   0.000E+00   0.000E+00   0.000E+00
 26    5.000   1.145E+00   4.066E+00   0.000E+00   0.000E+00   0.000E+00   0.000E+00   0.000E+00
 27    4.000   1.486E+00   4.675E+00   0.000E+00   0.000E+00   0.000E+00   0.000E+00   0.000E+00
 28    3.000   1.914E+00   5.358E+00   0.000E+00   0.000E+00   0.000E+00   0.000E+00   0.000E+00
 29    2.000   2.458E+00   6.127E+00   0.000E+00   0.000E+00   0.000E+00   0.000E+00   0.000E+00
 30    1.000   3.151E+00   6.995E+00   0.000E+00   0.000E+00   0.000E+00   0.000E+00   0.000E+00
 31    0.000   4.050E+00   7.984E+00   0.000E+00   0.000E+00   0.000E+00   0.000E+00   0.000E+00



1  J    Z       H2O       O3        CO2       CO        CH4       N2O       O2        NH3       NO        NO2       SO2
      (KM)    (                                                      ATM CM                                             )

   1   50.00  1.95E-03  7.14E-04  3.37E-01  0.00E+00  7.69E-05  0.00E+00  8.81E+01  0.00E+00  0.00E+00  0.00E+00  0.00E+00
   2   45.00  4.21E-03  2.18E-03  6.83E-01  0.00E+00  1.86E-04  0.00E+00  1.78E+02  0.00E+00  0.00E+00  0.00E+00  0.00E+00
   3   40.00  8.99E-03  6.74E-03  1.41E+00  0.00E+00  5.28E-04  0.00E+00  3.67E+02  0.00E+00  0.00E+00  0.00E+00  0.00E+00
   4   35.00  1.94E-02  1.86E-02  2.97E+00  0.00E+00  1.56E-03  0.00E+00  7.77E+02  0.00E+00  0.00E+00  0.00E+00  0.00E+00
   5   30.00  4.28E-02  4.36E-02  6.46E+00  0.00E+00  4.38E-03  0.00E+00  1.69E+03  0.00E+00  0.00E+00  0.00E+00  0.00E+00
   6   25.00  9.54E-02  9.26E-02  1.43E+01  0.00E+00  1.17E-02  0.00E+00  3.74E+03  0.00E+00  0.00E+00  0.00E+00  0.00E+00
   7   24.00  1.12E-01  1.07E-01  1.68E+01  0.00E+00  1.43E-02  0.00E+00  4.39E+03  0.00E+00  0.00E+00  0.00E+00  0.00E+00
   8   23.00  1.32E-01  1.24E-01  1.97E+01  0.00E+00  1.75E-02  0.00E+00  5.15E+03  0.00E+00  0.00E+00  0.00E+00  0.00E+00
   9   22.00  1.54E-01  1.42E-01  2.31E+01  0.00E+00  2.14E-02  0.00E+00  6.04E+03  0.00E+00  0.00E+00  0.00E+00  0.00E+00
  10   21.00  1.80E-01  1.63E-01  2.71E+01  0.00E+00  2.63E-02  0.00E+00  7.08E+03  0.00E+00  0.00E+00  0.00E+00  0.00E+00
  11   20.00  2.10E-01  1.85E-01  3.17E+01  0.00E+00  3.24E-02  0.00E+00  8.29E+03  0.00E+00  0.00E+00  0.00E+00  0.00E+00
  12   19.00  2.45E-01  2.08E-01  3.72E+01  0.00E+00  4.01E-02  0.00E+00  9.72E+03  0.00E+00  0.00E+00  0.00E+00  0.00E+00
  13   18.00  2.85E-01  2.30E-01  4.35E+01  0.00E+00  4.96E-02  0.00E+00  1.14E+04  0.00E+00  0.00E+00  0.00E+00  0.00E+00
  14   17.00  3.32E-01  2.50E-01  5.10E+01  0.00E+00  6.13E-02  0.00E+00  1.33E+04  0.00E+00  0.00E+00  0.00E+00  0.00E+00
  15   16.00  3.86E-01  2.68E-01  5.96E+01  0.00E+00  7.56E-02  0.00E+00  1.56E+04  0.00E+00  0.00E+00  0.00E+00  0.00E+00
  16   15.00  4.48E-01  2.85E-01  6.98E+01  0.00E+00  9.28E-02  0.00E+00  1.82E+04  0.00E+00  0.00E+00  0.00E+00  0.00E+00
  17   14.00  5.19E-01  3.00E-01  8.16E+01  0.00E+00  1.14E-01  0.00E+00  2.13E+04  0.00E+00  0.00E+00  0.00E+00  0.00E+00
  18   13.00  6.02E-01  3.14E-01  9.54E+01  0.00E+00  1.39E-01  0.00E+00  2.49E+04  0.00E+00  0.00E+00  0.00E+00  0.00E+00
  19   12.00  7.15E-01  3.24E-01  1.12E+02  0.00E+00  1.69E-01  0.00E+00  2.91E+04  0.00E+00  0.00E+00  0.00E+00  0.00E+00
  20   11.00  9.15E-01  3.33E-01  1.30E+02  0.00E+00  2.05E-01  0.00E+00  3.41E+04  0.00E+00  0.00E+00  0.00E+00  0.00E+00
  21   10.00  1.35E+00  3.42E-01  1.53E+02  0.00E+00  2.48E-01  0.00E+00  3.99E+04  0.00E+00  0.00E+00  0.00E+00  0.00E+00
  22    9.00  2.20E+00  3.50E-01  1.79E+02  0.00E+00  3.00E-01  0.00E+00  4.66E+04  0.00E+00  0.00E+00  0.00E+00  0.00E+00
  23    8.00  3.48E+00  3.56E-01  2.09E+02  0.00E+00  3.61E-01  0.00E+00  5.45E+04  0.00E+00  0.00E+00  0.00E+00  0.00E+00
  24    7.00  7.05E+00  3.60E-01  2.43E+02  0.00E+00  4.31E-01  0.00E+00  6.35E+04  0.00E+00  0.00E+00  0.00E+00  0.00E+00
  25    6.00  1.68E+01  3.62E-01  2.82E+02  0.00E+00  5.11E-01  0.00E+00  7.36E+04  0.00E+00  0.00E+00  0.00E+00  0.00E+00
  26    5.00  3.55E+01  3.65E-01  3.25E+02  0.00E+00  6.03E-01  0.00E+00  8.49E+04  0.00E+00  0.00E+00  0.00E+00  0.00E+00
  27    4.00  7.38E+01  3.67E-01  3.74E+02  0.00E+00  7.06E-01  0.00E+00  9.76E+04  0.00E+00  0.00E+00  0.00E+00  0.00E+00
  28    3.00  1.44E+02  3.69E-01  4.28E+02  0.00E+00  8.22E-01  0.00E+00  1.12E+05  0.00E+00  0.00E+00  0.00E+00  0.00E+00
  29    2.00  2.48E+02  3.71E-01  4.90E+02  0.00E+00  9.52E-01  0.00E+00  1.28E+05  0.00E+00  0.00E+00  0.00E+00  0.00E+00
  30    1.00  3.87E+02  3.73E-01  5.59E+02  0.00E+00  1.10E+00  0.00E+00  1.46E+05  0.00E+00  0.00E+00  0.00E+00  0.00E+00
  31    0.00  5.43E+02  3.75E-01  6.38E+02  0.00E+00  1.27E+00  0.00E+00  1.67E+05  0.00E+00  0.00E+00  0.00E+00  0.00E+00



1  J    Z      CFC-11    CFC-12    CFC-13    CFC-14    CFC-22    CFC-113   CFC-114   CFC-115   CLONO2     HNO4     CHCL2F 
                CCL4      N2O5  
      (KM)    (                                                   ATM CM                                                )

   1   50.00  5.91E-16  1.77E-10  4.21E-16  4.21E-16  3.49E-09  1.77E-12  4.25E-10  4.21E-16  3.46E-12  8.71E-12  4.21E-16
              7.84E-19  4.04E-15
   2   45.00  1.62E-14  8.13E-10  8.54E-16  8.54E-16  7.66E-09  1.05E-11  1.05E-09  8.54E-16  2.37E-10  1.69E-10  8.54E-16
              7.27E-17  4.92E-13
   3   40.00  6.34E-13  4.44E-09  1.76E-15  1.76E-15  1.87E-08  7.66E-11  2.85E-09  1.76E-15  1.37E-08  4.02E-09  1.76E-15
              1.01E-14  5.77E-11
   4   35.00  1.03E-10  3.02E-08  3.72E-15  3.72E-15  5.31E-08  8.11E-10  8.78E-09  3.72E-15  4.48E-07  1.20E-07  3.72E-15
              1.46E-11  6.51E-09
   5   30.00  6.50E-09  2.02E-07  8.08E-15  8.08E-15  1.66E-07  8.27E-09  2.93E-08  8.08E-15  4.08E-06  1.50E-06  8.08E-15
              2.41E-09  1.38E-07
   6   25.00  1.39E-07  1.08E-06  1.79E-14  1.79E-14  5.19E-07  5.93E-08  9.68E-08  1.79E-14  1.43E-05  6.88E-06  1.79E-14
              8.36E-08  7.95E-07
   7   24.00  2.34E-07  1.47E-06  2.10E-14  2.10E-14  6.49E-07  8.47E-08  1.22E-07  2.10E-14  1.72E-05  8.64E-06  2.10E-14
              1.50E-07  1.03E-06
   8   23.00  3.79E-07  1.97E-06  2.46E-14  2.46E-14  8.09E-07  1.19E-07  1.54E-07  2.46E-14  2.01E-05  1.05E-05  2.46E-14
              2.57E-07  1.29E-06
   9   22.00  5.97E-07  2.62E-06  2.89E-14  2.89E-14  1.00E-06  1.63E-07  1.92E-07  2.89E-14  2.29E-05  1.24E-05  2.89E-14
              4.29E-07  1.54E-06
  10   21.00  9.10E-07  3.44E-06  3.39E-14  3.39E-14  1.24E-06  2.22E-07  2.40E-07  3.39E-14  2.56E-05  1.43E-05  3.39E-14
              6.86E-07  1.77E-06
  11   20.00  1.34E-06  4.47E-06  3.97E-14  3.97E-14  1.53E-06  2.98E-07  2.98E-07  3.97E-14  2.78E-05  1.62E-05  3.97E-14
              1.05E-06  1.97E-06
  12   19.00  1.93E-06  5.76E-06  4.65E-14  4.65E-14  1.89E-06  3.94E-07  3.68E-07  4.65E-14  2.97E-05  1.80E-05  4.65E-14
              1.55E-06  2.15E-06
  13   18.00  2.69E-06  7.34E-06  5.44E-14  5.44E-14  2.31E-06  5.13E-07  4.53E-07  5.44E-14  3.14E-05  1.96E-05  5.44E-14
              2.23E-06  2.30E-06
  14   17.00  3.68E-06  9.29E-06  6.37E-14  6.37E-14  2.82E-06  6.62E-07  5.56E-07  6.37E-14  3.26E-05  2.12E-05  6.37E-14
              3.12E-06  2.42E-06
  15   16.00  4.96E-06  1.17E-05  7.46E-14  7.46E-14  3.43E-06  8.47E-07  6.79E-07  7.46E-14  3.33E-05  2.24E-05  7.46E-14
              4.29E-06  2.47E-06
  16   15.00  6.54E-06  1.45E-05  8.72E-14  8.72E-14  4.16E-06  1.07E-06  8.25E-07  8.72E-14  3.36E-05  2.36E-05  8.72E-14
              5.74E-06  2.49E-06
  17   14.00  8.45E-06  1.79E-05  1.02E-13  1.02E-13  5.01E-06  1.34E-06  9.98E-07  1.02E-13  3.39E-05  2.47E-05  1.02E-13
              7.50E-06  2.51E-06
  18   13.00  1.07E-05  2.20E-05  1.19E-13  1.19E-13  6.03E-06  1.65E-06  1.20E-06  1.19E-13  3.41E-05  2.58E-05  1.19E-13
              9.63E-06  2.52E-06
  19   12.00  1.35E-05  2.68E-05  1.39E-13  1.39E-13  7.23E-06  2.03E-06  1.44E-06  1.39E-13  3.42E-05  2.68E-05  1.39E-13
              1.22E-05  2.52E-06
  20   11.00  1.68E-05  3.24E-05  1.63E-13  1.63E-13  8.63E-06  2.48E-06  1.73E-06  1.63E-13  3.42E-05  2.78E-05  1.63E-13
              1.52E-05  2.52E-06
  21   10.00  2.07E-05  3.91E-05  1.91E-13  1.91E-13  1.03E-05  3.00E-06  2.06E-06  1.91E-13  3.42E-05  2.91E-05  1.91E-13
              1.88E-05  2.52E-06
  22    9.00  2.52E-05  4.68E-05  2.23E-13  2.23E-13  1.22E-05  3.62E-06  2.45E-06  2.23E-13  3.43E-05  3.07E-05  2.23E-13
              2.30E-05  2.52E-06
  23    8.00  3.04E-05  5.58E-05  2.61E-13  2.61E-13  1.45E-05  4.33E-06  2.90E-06  2.61E-13  3.43E-05  3.25E-05  2.61E-13
              2.78E-05  2.52E-06
  24    7.00  3.64E-05  6.61E-05  3.04E-13  3.04E-13  1.70E-05  5.15E-06  3.41E-06  3.04E-13  3.44E-05  3.45E-05  3.04E-13
              3.34E-05  2.52E-06
  25    6.00  4.32E-05  7.77E-05  3.52E-13  3.52E-13  1.99E-05  6.06E-06  3.99E-06  3.52E-13  3.45E-05  3.61E-05  3.52E-13
              3.96E-05  2.52E-06
  26    5.00  5.08E-05  9.08E-05  4.06E-13  4.06E-13  2.31E-05  7.10E-06  4.65E-06  4.06E-13  3.46E-05  3.74E-05  4.06E-13
              4.67E-05  2.52E-06
  27    4.00  5.93E-05  1.05E-04  4.67E-13  4.67E-13  2.68E-05  8.25E-06  5.38E-06  4.67E-13  3.48E-05  3.82E-05  4.67E-13
              5.46E-05  2.52E-06
  28    3.00  6.89E-05  1.22E-04  5.35E-13  5.35E-13  3.09E-05  9.55E-06  6.19E-06  5.35E-13  3.50E-05  3.86E-05  5.35E-13
              6.35E-05  2.52E-06
  29    2.00  7.97E-05  1.40E-04  6.12E-13  6.12E-13  3.55E-05  1.10E-05  7.12E-06  6.12E-13  3.54E-05  3.89E-05  6.12E-13
              7.34E-05  2.52E-06
  30    1.00  9.18E-05  1.61E-04  6.99E-13  6.99E-13  4.07E-05  1.27E-05  8.16E-06  6.99E-13  3.58E-05  3.92E-05  6.99E-13
              8.47E-05  2.52E-06
  31    0.00  1.06E-04  1.85E-04  7.98E-13  7.98E-13  4.66E-05  1.45E-05  9.34E-06  7.98E-13  3.63E-05  3.93E-05  7.98E-13
              9.76E-05  2.52E-06


0SUMMARY OF THE GEOMETRY CALCULATION

          H1      =     70.000 KM
          H2      =      0.000 KM
          ANGLE   =    180.000 DEG
          RANGE   =     70.000 KM
          BETA    =      0.000 DEG
          PHI     =      0.000 DEG
          HMIN    =      0.000 KM
          BENDING =      0.000 DEG
          LEN     =          0




1EQUIVALENT SEA LEVEL TOTAL ABSORBER AMOUNTS

                 HNO3      O3 UV       CNTMSLF1    CNTMSLF2   CNTMFRN
               (ATM CM)   (ATM CM)     (MOL CM-2)  (MOL CM-2)  (MOL CM-2)  (MOL CM-2)

             0.000E+00   3.746E-01   1.796E+19   1.959E+19   1.293E+22


              N2 CONT    MOL SCAT       AER 1       AER 2       AER 3       AER 4     CIRRUS      MEAN RH
                                                                                                  (PRCNT)

             4.050E+00   7.984E+00   0.000E+00   0.000E+00   0.000E+00   0.000E+00   0.000E+00        0.00


                 H2O        O3          CO2         CO          CH4         N2O          O2
               (                                        ATM CM                            )

             5.429E+02   3.746E-01   6.383E+02   0.000E+00   1.268E+00   0.000E+00   1.667E+05

                 NH3        NO          NO2         SO2
                 (               ATM CM               )

             0.000E+00   0.000E+00   0.000E+00   0.000E+00

             CFC-11      CFC-12      CFC-13      CFC-14      CFC-22      CFC-113     CFC-114
                 (                                      ATM CM                            )

             1.056E-04   1.847E-04   7.978E-13   7.978E-13   4.660E-05   1.454E-05   9.344E-06

             CFC-115     CLONO2       HNO4       CHCL2F       CCL4        N2O5  
                 (                                      ATM CM                            )

             7.978E-13   3.631E-05   3.933E-05   7.978E-13   9.757E-05   2.523E-06
  iv           -5
  iv            0
1                                             RADIANCE(WATTS/CM2-STER-XXX)
0  FREQ   WAVLEN    PATH THERMAL      SURFACE EMISSION    SURFACE REFLECTED     TOTAL RADIANCE   INTEGRAL    TOTAL
  (CM-1) (MICRN)    (CM-1)   (MICRN)    (CM-1)   (MICRN)    (CM-1)   (MICRN)    (CM-1)   (MICRN)    (CM-1)   TRANS

      2. 4999.998  4.98E-10  1.99E-13  5.80E-10  2.32E-13  0.00E+00  0.00E+00  1.08E-09  4.31E-13  1.08E-09  0.50451
      4. 2500.000  1.37E-09  2.19E-12  2.18E-09  3.49E-12  0.00E+00  0.00E+00  3.55E-09  5.68E-12  8.17E-09  0.58179
      6. 1666.666  3.45E-09  1.24E-11  4.21E-09  1.51E-11  0.00E+00  0.00E+00  7.66E-09  2.76E-11  2.35E-08  0.56276
      8. 1250.000  6.57E-09  4.21E-11  6.79E-09  4.35E-11  0.00E+00  0.00E+00  1.34E-08  8.55E-11  5.02E-08  0.51588
     10. 1000.000  1.42E-08  1.42E-10  6.32E-09  6.32E-11  0.00E+00  0.00E+00  2.05E-08  2.05E-10  9.12E-08  0.34306
     12.  833.333  2.60E-08  3.75E-10  2.66E-09  3.83E-11  0.00E+00  0.00E+00  2.87E-08  4.13E-10  1.49E-07  0.10796
     14.  714.286  3.73E-08  7.31E-10  6.55E-10  1.28E-11  0.00E+00  0.00E+00  3.80E-08  7.44E-10  2.25E-07  0.01922
     16.  625.000  4.83E-08  1.24E-09  1.18E-10  3.01E-12  0.00E+00  0.00E+00  4.84E-08  1.24E-09  3.21E-07  0.00283
     18.  555.555  5.86E-08  1.90E-09  8.18E-12  2.65E-13  0.00E+00  0.00E+00  5.86E-08  1.90E-09  4.39E-07  0.00014
     20.  500.000  7.29E-08  2.92E-09  9.22E-12  3.69E-13  0.00E+00  0.00E+00  7.30E-08  2.92E-09  5.85E-07  0.00011
     22.  454.545  9.04E-08  4.38E-09  2.08E-11  1.01E-12  0.00E+00  0.00E+00  9.04E-08  4.38E-09  7.65E-07  0.00021
     24.  416.667  1.04E-07  5.98E-09  1.03E-11  5.93E-13  0.00E+00  0.00E+00  1.04E-07  5.98E-09  9.73E-07  0.00010
     26.  384.615  1.20E-07  8.09E-09  1.64E-12  1.11E-13  0.00E+00  0.00E+00  1.20E-07  8.09E-09  1.21E-06  0.00001
     28.  357.143  1.43E-07  1.12E-08  6.67E-12  5.23E-13  0.00E+00  0.00E+00  1.43E-07  1.12E-08  1.50E-06  0.00004
     30.  333.333  1.62E-07  1.46E-08  4.20E-12  3.78E-13  0.00E+00  0.00E+00  1.62E-07  1.46E-08  1.82E-06  0.00003
     32.  312.500  1.76E-07  1.80E-08  3.98E-14  4.08E-15  0.00E+00  0.00E+00  1.76E-07  1.80E-08  2.17E-06  0.00000
     34.  294.118  1.96E-07  2.26E-08  6.34E-19  7.33E-20  0.00E+00  0.00E+00  1.96E-07  2.26E-08  2.56E-06  0.00000
     36.  277.778  2.13E-07  2.76E-08  1.04E-23  1.35E-24  0.00E+00  0.00E+00  2.13E-07  2.76E-08  2.99E-06  0.00000
     38.  263.158  2.30E-07  3.33E-08  1.25E-35  1.80E-36  0.00E+00  0.00E+00  2.30E-07  3.33E-08  3.45E-06  0.00000
     40.  250.000  2.56E-07  4.10E-08  5.92E-31  9.48E-32  0.00E+00  0.00E+00  2.56E-07  4.10E-08  3.96E-06  0.00000
     42.  238.095  2.90E-07  5.12E-08  1.91E-22  3.36E-23  0.00E+00  0.00E+00  2.90E-07  5.12E-08  4.54E-06  0.00000
     44.  227.273  3.22E-07  6.24E-08  5.10E-22  9.88E-23  0.00E+00  0.00E+00  3.22E-07  6.24E-08  5.19E-06  0.00000
     46.  217.391  3.44E-07  7.28E-08  9.44E-21  2.00E-21  0.00E+00  0.00E+00  3.44E-07  7.28E-08  5.88E-06  0.00000
     48.  208.333  3.68E-07  8.49E-08  9.28E-21  2.14E-21  0.00E+00  0.00E+00  3.68E-07  8.49E-08  6.61E-06  0.00000
     50.  200.000  4.04E-07  1.01E-07  1.07E-25  2.68E-26  0.00E+00  0.00E+00  4.04E-07  1.01E-07  7.42E-06  0.00000
     52.  192.308  4.27E-07  1.15E-07  3.56E-26  9.63E-27  0.00E+00  0.00E+00  4.27E-07  1.15E-07  8.28E-06  0.00000
     54.  185.185  4.44E-07  1.29E-07  1.95E-41  5.68E-42  0.00E+00  0.00E+00  4.44E-07  1.29E-07  9.16E-06  0.00000
     56.  178.571  4.68E-07  1.47E-07  0.00E+00  0.00E+00  0.00E+00  0.00E+00  4.68E-07  1.47E-07  1.01E-05  0.00000
     58.  172.414  5.00E-07  1.68E-07  0.00E+00  0.00E+00  0.00E+00  0.00E+00  5.00E-07  1.68E-07  1.11E-05  0.00000
     60.  166.667  5.39E-07  1.94E-07  3.12E-38  1.12E-38  0.00E+00  0.00E+00  5.39E-07  1.94E-07  1.22E-05  0.00000
     62.  161.290  5.73E-07  2.20E-07  9.62E-38  3.70E-38  0.00E+00  0.00E+00  5.73E-07  2.20E-07  1.33E-05  0.00000
     64.  156.250  6.07E-07  2.49E-07  4.14E-38  1.70E-38  0.00E+00  0.00E+00  6.07E-07  2.49E-07  1.45E-05  0.00000
     66.  151.515  6.52E-07  2.84E-07  1.01E-38  4.39E-39  0.00E+00  0.00E+00  6.52E-07  2.84E-07  1.58E-05  0.00000
     68.  147.059  6.81E-07  3.15E-07  2.50E-39  1.15E-39  0.00E+00  0.00E+00  6.81E-07  3.15E-07  1.72E-05  0.00000
     70.  142.857  7.12E-07  3.49E-07  7.72E-43  3.78E-43  0.00E+00  0.00E+00  7.12E-07  3.49E-07  1.86E-05  0.00000
     72.  138.889  7.38E-07  3.83E-07  0.00E+00  0.00E+00  0.00E+00  0.00E+00  7.38E-07  3.83E-07  2.01E-05  0.00000
     74.  135.135  7.67E-07  4.20E-07  0.00E+00  0.00E+00  0.00E+00  0.00E+00  7.67E-07  4.20E-07  2.16E-05  0.00000
     76.  131.579  8.10E-07  4.68E-07  0.00E+00  0.00E+00  0.00E+00  0.00E+00  8.10E-07  4.68E-07  2.33E-05  0.00000
     78.  128.205  8.48E-07  5.16E-07  0.00E+00  0.00E+00  0.00E+00  0.00E+00  8.48E-07  5.16E-07  2.50E-05  0.00000
     80.  125.000  8.82E-07  5.65E-07  0.00E+00  0.00E+00  0.00E+00  0.00E+00  8.82E-07  5.65E-07  2.67E-05  0.00000
     82.  121.951  9.28E-07  6.24E-07  0.00E+00  0.00E+00  0.00E+00  0.00E+00  9.28E-07  6.24E-07  2.86E-05  0.00000
     84.  119.048  9.83E-07  6.94E-07  0.00E+00  0.00E+00  0.00E+00  0.00E+00  9.83E-07  6.94E-07  3.05E-05  0.00000
     86.  116.279  1.01E-06  7.50E-07  0.00E+00  0.00E+00  0.00E+00  0.00E+00  1.01E-06  7.50E-07  3.26E-05  0.00000
     88.  113.636  1.03E-06  8.00E-07  0.00E+00  0.00E+00  0.00E+00  0.00E+00  1.03E-06  8.00E-07  3.46E-05  0.00000
     90.  111.111  1.07E-06  8.71E-07  0.00E+00  0.00E+00  0.00E+00  0.00E+00  1.07E-06  8.71E-07  3.68E-05  0.00000
     92.  108.696  1.11E-06  9.43E-07  0.00E+00  0.00E+00  0.00E+00  0.00E+00  1.11E-06  9.43E-07  3.90E-05  0.00000
     94.  106.383  1.16E-06  1.02E-06  0.00E+00  0.00E+00  0.00E+00  0.00E+00  1.16E-06  1.02E-06  4.13E-05  0.00000
     96.  104.167  1.21E-06  1.11E-06  0.00E+00  0.00E+00  0.00E+00  0.00E+00  1.21E-06  1.11E-06  4.37E-05  0.00000
     98.  102.041  1.24E-06  1.19E-06  0.00E+00  0.00E+00  0.00E+00  0.00E+00  1.24E-06  1.19E-06  4.62E-05  0.00000
    100.  100.000  1.27E-06  1.27E-06  0.00E+00  0.00E+00  0.00E+00  0.00E+00  1.27E-06  1.27E-06  4.88E-05  0.00000
  iv          105
1                                             RADIANCE(WATTS/CM2-STER-XXX)
0  FREQ   WAVLEN    PATH THERMAL      SURFACE EMISSION    SURFACE REFLECTED     TOTAL RADIANCE   INTEGRAL    TOTAL
  (CM-1) (MICRN)    (CM-1)   (MICRN)    (CM-1)   (MICRN)    (CM-1)   (MICRN)    (CM-1)   (MICRN)    (CM-1)   TRANS

    102.   98.039  1.32E-06  1.38E-06  0.00E+00  0.00E+00  0.00E+00  0.00E+00  1.32E-06  1.38E-06  5.14E-05  0.00000
    104.   96.154  1.37E-06  1.48E-06  0.00E+00  0.00E+00  0.00E+00  0.00E+00  1.37E-06  1.48E-06  5.42E-05  0.00000
    106.   94.340  1.41E-06  1.58E-06  0.00E+00  0.00E+00  0.00E+00  0.00E+00  1.41E-06  1.58E-06  5.70E-05  0.00000
    108.   92.593  1.48E-06  1.72E-06  0.00E+00  0.00E+00  0.00E+00  0.00E+00  1.48E-06  1.72E-06  5.99E-05  0.00000
    110.   90.909  1.52E-06  1.84E-06  0.00E+00  0.00E+00  0.00E+00  0.00E+00  1.52E-06  1.84E-06  6.30E-05  0.00000
    112.   89.286  1.56E-06  1.96E-06  0.00E+00  0.00E+00  0.00E+00  0.00E+00  1.56E-06  1.96E-06  6.61E-05  0.00000
    114.   87.719  1.66E-06  2.15E-06  0.00E+00  0.00E+00  0.00E+00  0.00E+00  1.66E-06  2.15E-06  6.94E-05  0.00000
    116.   86.207  1.69E-06  2.28E-06  0.00E+00  0.00E+00  0.00E+00  0.00E+00  1.69E-06  2.28E-06  7.28E-05  0.00000
    118.   84.746  1.70E-06  2.37E-06  0.00E+00  0.00E+00  0.00E+00  0.00E+00  1.70E-06  2.37E-06  7.62E-05  0.00000
    120.   83.333  1.72E-06  2.48E-06  0.00E+00  0.00E+00  0.00E+00  0.00E+00  1.72E-06  2.48E-06  7.96E-05  0.00000
    122.   81.967  1.75E-06  2.61E-06  0.00E+00  0.00E+00  0.00E+00  0.00E+00  1.75E-06  2.61E-06  8.31E-05  0.00000
    124.   80.645  1.82E-06  2.80E-06  0.00E+00  0.00E+00  0.00E+00  0.00E+00  1.82E-06  2.80E-06  8.68E-05  0.00000
    126.   79.365  1.85E-06  2.94E-06  0.00E+00  0.00E+00  0.00E+00  0.00E+00  1.85E-06  2.94E-06  9.05E-05  0.00000
    128.   78.125  1.90E-06  3.12E-06  0.00E+00  0.00E+00  0.00E+00  0.00E+00  1.90E-06  3.12E-06  9.43E-05  0.00000
    130.   76.923  1.97E-06  3.32E-06  0.00E+00  0.00E+00  0.00E+00  0.00E+00  1.97E-06  3.32E-06  9.82E-05  0.00000
    132.   75.758  1.98E-06  3.46E-06  0.00E+00  0.00E+00  0.00E+00  0.00E+00  1.98E-06  3.46E-06  1.02E-04  0.00000
    134.   74.627  2.05E-06  3.67E-06  0.00E+00  0.00E+00  0.00E+00  0.00E+00  2.05E-06  3.67E-06  1.06E-04  0.00000
    136.   73.529  2.13E-06  3.94E-06  0.00E+00  0.00E+00  0.00E+00  0.00E+00  2.13E-06  3.94E-06  1.11E-04  0.00000
    138.   72.464  2.14E-06  4.07E-06  0.00E+00  0.00E+00  0.00E+00  0.00E+00  2.14E-06  4.07E-06  1.15E-04  0.00000
    140.   71.429  2.16E-06  4.23E-06  0.00E+00  0.00E+00  0.00E+00  0.00E+00  2.16E-06  4.23E-06  1.19E-04  0.00000
    142.   70.423  2.26E-06  4.57E-06  0.00E+00  0.00E+00  0.00E+00  0.00E+00  2.26E-06  4.57E-06  1.24E-04  0.00000
    144.   69.444  2.36E-06  4.90E-06  0.00E+00  0.00E+00  0.00E+00  0.00E+00  2.36E-06  4.90E-06  1.28E-04  0.00000
    146.   68.493  2.39E-06  5.09E-06  0.00E+00  0.00E+00  0.00E+00  0.00E+00  2.39E-06  5.09E-06  1.33E-04  0.00000
    148.   67.568  2.37E-06  5.19E-06  0.00E+00  0.00E+00  0.00E+00  0.00E+00  2.37E-06  5.19E-06  1.38E-04  0.00000
    150.   66.667  2.37E-06  5.33E-06  0.00E+00  0.00E+00  0.00E+00  0.00E+00  2.37E-06  5.33E-06  1.43E-04  0.00000
    152.   65.789  2.42E-06  5.58E-06  0.00E+00  0.00E+00  0.00E+00  0.00E+00  2.42E-06  5.58E-06  1.47E-04  0.00000
    154.   64.935  2.49E-06  5.91E-06  0.00E+00  0.00E+00  0.00E+00  0.00E+00  2.49E-06  5.91E-06  1.52E-04  0.00000
    156.   64.103  2.55E-06  6.22E-06  0.00E+00  0.00E+00  0.00E+00  0.00E+00  2.55E-06  6.22E-06  1.58E-04  0.00000
    158.   63.291  2.60E-06  6.49E-06  0.00E+00  0.00E+00  0.00E+00  0.00E+00  2.60E-06  6.49E-06  1.63E-04  0.00000
    160.   62.500  2.71E-06  6.94E-06  0.00E+00  0.00E+00  0.00E+00  0.00E+00  2.71E-06  6.94E-06  1.68E-04  0.00000
    162.   61.728  2.80E-06  7.36E-06  0.00E+00  0.00E+00  0.00E+00  0.00E+00  2.80E-06  7.36E-06  1.74E-04  0.00000
    164.   60.976  2.86E-06  7.70E-06  0.00E+00  0.00E+00  0.00E+00  0.00E+00  2.86E-06  7.70E-06  1.80E-04  0.00000
    166.   60.241  2.83E-06  7.81E-06  0.00E+00  0.00E+00  0.00E+00  0.00E+00  2.83E-06  7.81E-06  1.85E-04  0.00000
    168.   59.524  2.83E-06  7.98E-06  0.00E+00  0.00E+00  0.00E+00  0.00E+00  2.83E-06  7.98E-06  1.91E-04  0.00000
    170.   58.824  2.84E-06  8.21E-06  0.00E+00  0.00E+00  0.00E+00  0.00E+00  2.84E-06  8.21E-06  1.97E-04  0.00000
    172.   58.140  2.89E-06  8.56E-06  0.00E+00  0.00E+00  0.00E+00  0.00E+00  2.89E-06  8.56E-06  2.02E-04  0.00000
    174.   57.471  2.95E-06  8.94E-06  0.00E+00  0.00E+00  0.00E+00  0.00E+00  2.95E-06  8.94E-06  2.08E-04  0.00000
    176.   56.818  2.99E-06  9.26E-06  0.00E+00  0.00E+00  0.00E+00  0.00E+00  2.99E-06  9.26E-06  2.14E-04  0.00000
    178.   56.180  3.04E-06  9.62E-06  0.00E+00  0.00E+00  0.00E+00  0.00E+00  3.04E-06  9.62E-06  2.20E-04  0.00000
    180.   55.556  3.13E-06  1.02E-05  0.00E+00  0.00E+00  0.00E+00  0.00E+00  3.13E-06  1.02E-05  2.27E-04  0.00000
    182.   54.945  3.21E-06  1.06E-05  0.00E+00  0.00E+00  0.00E+00  0.00E+00  3.21E-06  1.06E-05  2.33E-04  0.00000
    184.   54.348  3.33E-06  1.13E-05  0.00E+00  0.00E+00  0.00E+00  0.00E+00  3.33E-06  1.13E-05  2.40E-04  0.00000
    186.   53.763  3.37E-06  1.17E-05  6.66E-40  2.30E-39  0.00E+00  0.00E+00  3.37E-06  1.17E-05  2.46E-04  0.00000
    188.   53.191  3.32E-06  1.17E-05  2.00E-39  7.06E-39  0.00E+00  0.00E+00  3.32E-06  1.17E-05  2.53E-04  0.00000
    190.   52.632  3.45E-06  1.24E-05  6.66E-40  2.40E-39  0.00E+00  0.00E+00  3.45E-06  1.24E-05  2.60E-04  0.00000
    192.   52.083  3.52E-06  1.30E-05  0.00E+00  0.00E+00  0.00E+00  0.00E+00  3.52E-06  1.30E-05  2.67E-04  0.00000
    194.   51.546  3.49E-06  1.31E-05  0.00E+00  0.00E+00  0.00E+00  0.00E+00  3.49E-06  1.31E-05  2.74E-04  0.00000
    196.   51.020  3.55E-06  1.36E-05  0.00E+00  0.00E+00  0.00E+00  0.00E+00  3.55E-06  1.36E-05  2.81E-04  0.00000
    198.   50.505  3.61E-06  1.41E-05  0.00E+00  0.00E+00  0.00E+00  0.00E+00  3.61E-06  1.41E-05  2.88E-04  0.00000
    200.   50.000  3.58E-06  1.43E-05  0.00E+00  0.00E+00  0.00E+00  0.00E+00  3.58E-06  1.43E-05  2.95E-04  0.00000
  iv          205
1                                             RADIANCE(WATTS/CM2-STER-XXX)
0  FREQ   WAVLEN    PATH THERMAL      SURFACE EMISSION    SURFACE REFLECTED     TOTAL RADIANCE   INTEGRAL    TOTAL
  (CM-1) (MICRN)    (CM-1)   (MICRN)    (CM-1)   (MICRN)    (CM-1)   (MICRN)    (CM-1)   (MICRN)    (CM-1)   TRANS

    202.   49.505  3.52E-06  1.44E-05  0.00E+00  0.00E+00  0.00E+00  0.00E+00  3.52E-06  1.44E-05  3.02E-04  0.00000
    204.   49.020  3.60E-06  1.50E-05  0.00E+00  0.00E+00  0.00E+00  0.00E+00  3.60E-06  1.50E-05  3.10E-04  0.00000
    206.   48.544  3.69E-06  1.57E-05  0.00E+00  0.00E+00  0.00E+00  0.00E+00  3.69E-06  1.57E-05  3.17E-04  0.00000
    208.   48.077  3.68E-06  1.59E-05  0.00E+00  0.00E+00  0.00E+00  0.00E+00  3.68E-06  1.59E-05  3.24E-04  0.00000
    210.   47.619  3.79E-06  1.67E-05  0.00E+00  0.00E+00  0.00E+00  0.00E+00  3.79E-06  1.67E-05  3.32E-04  0.00000
    212.   47.170  3.88E-06  1.75E-05  0.00E+00  0.00E+00  0.00E+00  0.00E+00  3.88E-06  1.75E-05  3.40E-04  0.00000
    214.   46.729  3.88E-06  1.78E-05  0.00E+00  0.00E+00  0.00E+00  0.00E+00  3.88E-06  1.78E-05  3.48E-04  0.00000
    216.   46.296  4.05E-06  1.89E-05  6.03E-44  2.82E-43  0.00E+00  0.00E+00  4.05E-06  1.89E-05  3.56E-04  0.00000
    218.   45.872  4.19E-06  1.99E-05  1.23E-43  5.86E-43  0.00E+00  0.00E+00  4.19E-06  1.99E-05  3.64E-04  0.00000
    220.   45.455  4.10E-06  1.98E-05  3.08E-44  1.49E-43  0.00E+00  0.00E+00  4.10E-06  1.98E-05  3.72E-04  0.00000
    222.   45.045  3.99E-06  1.97E-05  0.00E+00  0.00E+00  0.00E+00  0.00E+00  3.99E-06  1.97E-05  3.80E-04  0.00000
    224.   44.643  4.04E-06  2.03E-05  0.00E+00  0.00E+00  0.00E+00  0.00E+00  4.04E-06  2.03E-05  3.88E-04  0.00000
    226.   44.248  4.03E-06  2.06E-05  0.00E+00  0.00E+00  0.00E+00  0.00E+00  4.03E-06  2.06E-05  3.96E-04  0.00000
    228.   43.860  4.08E-06  2.12E-05  0.00E+00  0.00E+00  0.00E+00  0.00E+00  4.08E-06  2.12E-05  4.04E-04  0.00000
    230.   43.478  4.26E-06  2.25E-05  0.00E+00  0.00E+00  0.00E+00  0.00E+00  4.26E-06  2.25E-05  4.13E-04  0.00000
    232.   43.103  4.39E-06  2.36E-05  2.61E-42  1.40E-41  0.00E+00  0.00E+00  4.39E-06  2.36E-05  4.22E-04  0.00000
    234.   42.735  4.55E-06  2.49E-05  4.93E-32  2.70E-31  0.00E+00  0.00E+00  4.55E-06  2.49E-05  4.31E-04  0.00000
    236.   42.373  4.69E-06  2.61E-05  3.78E-30  2.10E-29  0.00E+00  0.00E+00  4.69E-06  2.61E-05  4.40E-04  0.00000
    238.   42.017  4.76E-06  2.70E-05  9.97E-30  5.65E-29  0.00E+00  0.00E+00  4.76E-06  2.70E-05  4.50E-04  0.00000
    240.   41.667  4.80E-06  2.76E-05  5.04E-30  2.90E-29  0.00E+00  0.00E+00  4.80E-06  2.76E-05  4.59E-04  0.00000
    242.   41.322  4.76E-06  2.79E-05  2.28E-31  1.33E-30  0.00E+00  0.00E+00  4.76E-06  2.79E-05  4.69E-04  0.00000
    244.   40.984  4.55E-06  2.71E-05  8.55E-37  5.09E-36  0.00E+00  0.00E+00  4.55E-06  2.71E-05  4.78E-04  0.00000
    246.   40.650  4.40E-06  2.66E-05  4.20E-45  2.52E-44  0.00E+00  0.00E+00  4.40E-06  2.66E-05  4.87E-04  0.00000
    248.   40.323  4.47E-06  2.75E-05  1.12E-44  6.87E-44  0.00E+00  0.00E+00  4.47E-06  2.75E-05  4.96E-04  0.00000
    250.   40.000  4.66E-06  2.91E-05  4.20E-45  2.66E-44  0.00E+00  0.00E+00  4.66E-06  2.91E-05  5.05E-04  0.00000
    252.   39.683  4.63E-06  2.94E-05  3.16E-36  2.00E-35  0.00E+00  0.00E+00  4.63E-06  2.94E-05  5.14E-04  0.00000
    254.   39.370  4.57E-06  2.95E-05  9.47E-36  6.11E-35  0.00E+00  0.00E+00  4.57E-06  2.95E-05  5.23E-04  0.00000
    256.   39.063  4.81E-06  3.15E-05  3.32E-36  2.18E-35  0.00E+00  0.00E+00  4.81E-06  3.15E-05  5.33E-04  0.00000
    258.   38.760  5.09E-06  3.39E-05  1.14E-28  7.60E-28  0.00E+00  0.00E+00  5.09E-06  3.39E-05  5.43E-04  0.00000
    260.   38.462  5.25E-06  3.55E-05  2.37E-26  1.61E-25  0.00E+00  0.00E+00  5.25E-06  3.55E-05  5.54E-04  0.00000
    262.   38.168  5.28E-06  3.63E-05  5.39E-26  3.70E-25  0.00E+00  0.00E+00  5.28E-06  3.63E-05  5.64E-04  0.00000
    264.   37.879  5.22E-06  3.64E-05  3.82E-26  2.66E-25  0.00E+00  0.00E+00  5.22E-06  3.64E-05  5.75E-04  0.00000
    266.   37.594  5.08E-06  3.60E-05  6.81E-26  4.82E-25  0.00E+00  0.00E+00  5.08E-06  3.60E-05  5.85E-04  0.00000
    268.   37.313  5.27E-06  3.78E-05  7.53E-25  5.41E-24  0.00E+00  0.00E+00  5.27E-06  3.78E-05  5.95E-04  0.00000
    270.   37.037  5.49E-06  4.00E-05  2.34E-24  1.71E-23  0.00E+00  0.00E+00  5.49E-06  4.00E-05  6.06E-04  0.00000
    272.   36.765  5.49E-06  4.06E-05  1.02E-24  7.55E-24  0.00E+00  0.00E+00  5.49E-06  4.06E-05  6.17E-04  0.00000
    274.   36.496  5.38E-06  4.04E-05  1.34E-26  1.01E-25  0.00E+00  0.00E+00  5.38E-06  4.04E-05  6.28E-04  0.00000
    276.   36.232  5.10E-06  3.89E-05  1.34E-31  1.02E-30  0.00E+00  0.00E+00  5.10E-06  3.89E-05  6.38E-04  0.00000
    278.   35.971  4.94E-06  3.82E-05  0.00E+00  0.00E+00  0.00E+00  0.00E+00  4.94E-06  3.82E-05  6.48E-04  0.00000
    280.   35.714  4.97E-06  3.90E-05  1.02E-43  8.02E-43  0.00E+00  0.00E+00  4.97E-06  3.90E-05  6.58E-04  0.00000
    282.   35.461  5.07E-06  4.03E-05  3.08E-43  2.45E-42  0.00E+00  0.00E+00  5.07E-06  4.03E-05  6.68E-04  0.00000
    284.   35.211  5.40E-06  4.36E-05  2.87E-31  2.31E-30  0.00E+00  0.00E+00  5.40E-06  4.36E-05  6.79E-04  0.00000
    286.   34.965  5.64E-06  4.61E-05  8.70E-31  7.12E-30  0.00E+00  0.00E+00  5.64E-06  4.61E-05  6.90E-04  0.00000
    288.   34.722  5.46E-06  4.53E-05  4.49E-24  3.72E-23  0.00E+00  0.00E+00  5.46E-06  4.53E-05  7.01E-04  0.00000
    290.   34.483  5.37E-06  4.52E-05  4.49E-24  3.78E-23  0.00E+00  0.00E+00  5.37E-06  4.52E-05  7.12E-04  0.00000
    292.   34.247  5.78E-06  4.93E-05  4.46E-21  3.80E-20  0.00E+00  0.00E+00  5.78E-06  4.93E-05  7.24E-04  0.00000
    294.   34.014  6.02E-06  5.20E-05  2.22E-20  1.92E-19  0.00E+00  0.00E+00  6.02E-06  5.20E-05  7.36E-04  0.00000
    296.   33.784  6.00E-06  5.26E-05  1.63E-20  1.43E-19  0.00E+00  0.00E+00  6.00E-06  5.26E-05  7.48E-04  0.00000
    298.   33.557  5.89E-06  5.23E-05  1.44E-21  1.28E-20  0.00E+00  0.00E+00  5.89E-06  5.23E-05  7.59E-04  0.00000
    300.   33.333  5.72E-06  5.14E-05  8.98E-25  8.09E-24  0.00E+00  0.00E+00  5.72E-06  5.14E-05  7.71E-04  0.00000
  iv          305
1                                             RADIANCE(WATTS/CM2-STER-XXX)
0  FREQ   WAVLEN    PATH THERMAL      SURFACE EMISSION    SURFACE REFLECTED     TOTAL RADIANCE   INTEGRAL    TOTAL
  (CM-1) (MICRN)    (CM-1)   (MICRN)    (CM-1)   (MICRN)    (CM-1)   (MICRN)    (CM-1)   (MICRN)    (CM-1)   TRANS

    302.   33.113  5.40E-06  4.92E-05  8.13E-35  7.41E-34  0.00E+00  0.00E+00  5.40E-06  4.92E-05  7.82E-04  0.00000
    304.   32.895  5.53E-06  5.11E-05  1.18E-28  1.09E-27  0.00E+00  0.00E+00  5.53E-06  5.11E-05  7.93E-04  0.00000
    306.   32.680  6.02E-06  5.64E-05  4.21E-20  3.94E-19  0.00E+00  0.00E+00  6.02E-06  5.64E-05  8.05E-04  0.00000
    308.   32.468  6.24E-06  5.92E-05  1.42E-18  1.35E-17  0.00E+00  0.00E+00  6.24E-06  5.92E-05  8.17E-04  0.00000
    310.   32.258  6.34E-06  6.09E-05  4.96E-17  4.77E-16  0.00E+00  0.00E+00  6.34E-06  6.09E-05  8.30E-04  0.00000
    312.   32.051  6.40E-06  6.23E-05  7.19E-17  7.00E-16  0.00E+00  0.00E+00  6.40E-06  6.23E-05  8.43E-04  0.00000
    314.   31.847  6.14E-06  6.05E-05  1.65E-17  1.63E-16  0.00E+00  0.00E+00  6.14E-06  6.05E-05  8.55E-04  0.00000
    316.   31.646  6.15E-06  6.15E-05  1.37E-16  1.37E-15  0.00E+00  0.00E+00  6.15E-06  6.15E-05  8.67E-04  0.00000
    318.   31.447  6.54E-06  6.61E-05  6.98E-16  7.06E-15  0.00E+00  0.00E+00  6.54E-06  6.61E-05  8.80E-04  0.00000
    320.   31.250  6.52E-06  6.68E-05  4.40E-16  4.50E-15  0.00E+00  0.00E+00  6.52E-06  6.68E-05  8.93E-04  0.00000
    322.   31.056  6.14E-06  6.36E-05  5.58E-18  5.78E-17  0.00E+00  0.00E+00  6.14E-06  6.36E-05  9.06E-04  0.00000
    324.   30.864  5.86E-06  6.15E-05  1.06E-21  1.11E-20  0.00E+00  0.00E+00  5.86E-06  6.15E-05  9.17E-04  0.00000
    326.   30.675  5.99E-06  6.37E-05  3.59E-22  3.82E-21  0.00E+00  0.00E+00  5.99E-06  6.37E-05  9.29E-04  0.00000
    328.   30.488  5.96E-06  6.42E-05  8.46E-23  9.10E-22  0.00E+00  0.00E+00  5.96E-06  6.42E-05  9.41E-04  0.00000
    330.   30.303  6.45E-06  7.03E-05  5.32E-17  5.79E-16  0.00E+00  0.00E+00  6.45E-06  7.03E-05  9.54E-04  0.00000
    332.   30.120  6.72E-06  7.40E-05  1.52E-16  1.68E-15  0.00E+00  0.00E+00  6.72E-06  7.40E-05  9.68E-04  0.00000
    334.   29.940  6.31E-06  7.04E-05  5.63E-17  6.28E-16  0.00E+00  0.00E+00  6.31E-06  7.04E-05  9.80E-04  0.00000
    336.   29.762  6.25E-06  7.05E-05  1.21E-15  1.36E-14  0.00E+00  0.00E+00  6.25E-06  7.05E-05  9.93E-04  0.00000
    338.   29.586  6.77E-06  7.73E-05  6.90E-15  7.88E-14  0.00E+00  0.00E+00  6.77E-06  7.73E-05  1.01E-03  0.00000
    340.   29.412  6.63E-06  7.66E-05  4.87E-15  5.63E-14  0.00E+00  0.00E+00  6.63E-06  7.66E-05  1.02E-03  0.00000
    342.   29.240  6.58E-06  7.69E-05  2.25E-15  2.63E-14  0.00E+00  0.00E+00  6.58E-06  7.69E-05  1.03E-03  0.00000
    344.   29.070  6.83E-06  8.08E-05  4.01E-14  4.74E-13  0.00E+00  0.00E+00  6.83E-06  8.08E-05  1.05E-03  0.00000
    346.   28.902  6.95E-06  8.32E-05  1.03E-13  1.23E-12  0.00E+00  0.00E+00  6.95E-06  8.32E-05  1.06E-03  0.00000
    348.   28.736  6.76E-06  8.19E-05  5.73E-14  6.94E-13  0.00E+00  0.00E+00  6.76E-06  8.19E-05  1.07E-03  0.00000
    350.   28.571  6.31E-06  7.73E-05  4.33E-18  5.31E-17  0.00E+00  0.00E+00  6.31E-06  7.73E-05  1.09E-03  0.00000
    352.   28.409  6.25E-06  7.74E-05  9.22E-21  1.14E-19  0.00E+00  0.00E+00  6.25E-06  7.74E-05  1.10E-03  0.00000
    354.   28.249  6.32E-06  7.92E-05  4.96E-22  6.21E-21  0.00E+00  0.00E+00  6.32E-06  7.92E-05  1.11E-03  0.00000
    356.   28.090  6.38E-06  8.08E-05  2.88E-17  3.65E-16  0.00E+00  0.00E+00  6.38E-06  8.08E-05  1.12E-03  0.00000
    358.   27.933  6.61E-06  8.47E-05  9.20E-13  1.18E-11  0.00E+00  0.00E+00  6.61E-06  8.47E-05  1.14E-03  0.00000
    360.   27.778  7.27E-06  9.43E-05  6.78E-11  8.78E-10  0.00E+00  0.00E+00  7.27E-06  9.43E-05  1.15E-03  0.00001
    362.   27.624  7.55E-06  9.90E-05  4.39E-10  5.75E-09  0.00E+00  0.00E+00  7.55E-06  9.90E-05  1.17E-03  0.00005
    364.   27.473  7.66E-06  1.02E-04  1.60E-09  2.12E-08  0.00E+00  0.00E+00  7.66E-06  1.02E-04  1.18E-03  0.00019
    366.   27.322  7.74E-06  1.04E-04  2.05E-09  2.75E-08  0.00E+00  0.00E+00  7.74E-06  1.04E-04  1.20E-03  0.00024
    368.   27.174  7.36E-06  9.97E-05  7.17E-10  9.71E-09  0.00E+00  0.00E+00  7.36E-06  9.97E-05  1.21E-03  0.00008
    370.   27.027  7.02E-06  9.61E-05  2.27E-11  3.10E-10  0.00E+00  0.00E+00  7.02E-06  9.61E-05  1.23E-03  0.00000
    372.   26.882  7.32E-06  1.01E-04  2.35E-11  3.25E-10  0.00E+00  0.00E+00  7.32E-06  1.01E-04  1.24E-03  0.00000
    374.   26.738  6.85E-06  9.58E-05  7.70E-12  1.08E-10  0.00E+00  0.00E+00  6.85E-06  9.58E-05  1.26E-03  0.00000
    376.   26.596  6.83E-06  9.65E-05  1.99E-11  2.82E-10  0.00E+00  0.00E+00  6.83E-06  9.65E-05  1.27E-03  0.00000
    378.   26.455  7.54E-06  1.08E-04  1.16E-09  1.66E-08  0.00E+00  0.00E+00  7.54E-06  1.08E-04  1.28E-03  0.00013
    380.   26.316  7.88E-06  1.14E-04  4.65E-09  6.71E-08  0.00E+00  0.00E+00  7.89E-06  1.14E-04  1.30E-03  0.00053
    382.   26.178  7.82E-06  1.14E-04  4.00E-09  5.83E-08  0.00E+00  0.00E+00  7.82E-06  1.14E-04  1.32E-03  0.00046
    384.   26.042  7.13E-06  1.05E-04  6.85E-10  1.01E-08  0.00E+00  0.00E+00  7.13E-06  1.05E-04  1.33E-03  0.00008
    386.   25.907  7.14E-06  1.06E-04  2.61E-09  3.90E-08  0.00E+00  0.00E+00  7.14E-06  1.06E-04  1.34E-03  0.00030
    388.   25.773  7.96E-06  1.20E-04  2.23E-08  3.35E-07  0.00E+00  0.00E+00  7.98E-06  1.20E-04  1.36E-03  0.00252
    390.   25.641  8.20E-06  1.25E-04  4.11E-08  6.26E-07  0.00E+00  0.00E+00  8.24E-06  1.25E-04  1.38E-03  0.00464
    392.   25.510  8.06E-06  1.24E-04  2.51E-08  3.86E-07  0.00E+00  0.00E+00  8.09E-06  1.24E-04  1.39E-03  0.00283
    394.   25.381  7.47E-06  1.16E-04  3.06E-09  4.75E-08  0.00E+00  0.00E+00  7.47E-06  1.16E-04  1.41E-03  0.00034
    396.   25.253  6.88E-06  1.08E-04  6.06E-13  9.51E-12  0.00E+00  0.00E+00  6.88E-06  1.08E-04  1.42E-03  0.00000
    398.   25.126  6.74E-06  1.07E-04  1.17E-14  1.85E-13  0.00E+00  0.00E+00  6.74E-06  1.07E-04  1.43E-03  0.00000
    400.   25.000  7.31E-06  1.17E-04  5.02E-09  8.04E-08  0.00E+00  0.00E+00  7.31E-06  1.17E-04  1.45E-03  0.00056
  iv          405
1                                             RADIANCE(WATTS/CM2-STER-XXX)
0  FREQ   WAVLEN    PATH THERMAL      SURFACE EMISSION    SURFACE REFLECTED     TOTAL RADIANCE   INTEGRAL    TOTAL
  (CM-1) (MICRN)    (CM-1)   (MICRN)    (CM-1)   (MICRN)    (CM-1)   (MICRN)    (CM-1)   (MICRN)    (CM-1)   TRANS

    402.   24.876  8.14E-06  1.32E-04  6.87E-08  1.11E-06  0.00E+00  0.00E+00  8.21E-06  1.33E-04  1.47E-03  0.00762
    404.   24.752  8.34E-06  1.36E-04  1.65E-07  2.69E-06  0.00E+00  0.00E+00  8.50E-06  1.39E-04  1.48E-03  0.01827
    406.   24.631  8.29E-06  1.37E-04  2.86E-07  4.72E-06  0.00E+00  0.00E+00  8.58E-06  1.41E-04  1.50E-03  0.03162
    408.   24.510  8.26E-06  1.37E-04  4.28E-07  7.12E-06  0.00E+00  0.00E+00  8.69E-06  1.45E-04  1.52E-03  0.04720
    410.   24.390  8.25E-06  1.39E-04  4.64E-07  7.80E-06  0.00E+00  0.00E+00  8.72E-06  1.47E-04  1.53E-03  0.05108
    412.   24.272  8.31E-06  1.41E-04  4.09E-07  6.94E-06  0.00E+00  0.00E+00  8.72E-06  1.48E-04  1.55E-03  0.04491
    414.   24.155  8.37E-06  1.43E-04  2.15E-07  3.68E-06  0.00E+00  0.00E+00  8.59E-06  1.47E-04  1.57E-03  0.02353
    416.   24.038  8.04E-06  1.39E-04  3.76E-08  6.50E-07  0.00E+00  0.00E+00  8.08E-06  1.40E-04  1.59E-03  0.00412
    418.   23.923  7.06E-06  1.23E-04  1.37E-09  2.39E-08  0.00E+00  0.00E+00  7.06E-06  1.23E-04  1.60E-03  0.00015
    420.   23.810  7.11E-06  1.25E-04  3.27E-11  5.76E-10  0.00E+00  0.00E+00  7.11E-06  1.25E-04  1.61E-03  0.00000
    422.   23.697  7.85E-06  1.40E-04  1.69E-09  3.00E-08  0.00E+00  0.00E+00  7.85E-06  1.40E-04  1.63E-03  0.00018
    424.   23.585  8.03E-06  1.44E-04  7.56E-09  1.36E-07  0.00E+00  0.00E+00  8.04E-06  1.44E-04  1.65E-03  0.00082
    426.   23.474  8.15E-06  1.48E-04  1.28E-07  2.32E-06  0.00E+00  0.00E+00  8.28E-06  1.50E-04  1.66E-03  0.01384
    428.   23.364  8.28E-06  1.52E-04  4.64E-07  8.50E-06  0.00E+00  0.00E+00  8.74E-06  1.60E-04  1.68E-03  0.05017
    430.   23.256  8.18E-06  1.51E-04  3.68E-07  6.80E-06  0.00E+00  0.00E+00  8.54E-06  1.58E-04  1.70E-03  0.03974
    432.   23.148  8.16E-06  1.52E-04  3.39E-07  6.32E-06  0.00E+00  0.00E+00  8.50E-06  1.59E-04  1.71E-03  0.03646
    434.   23.041  8.26E-06  1.56E-04  4.71E-07  8.87E-06  0.00E+00  0.00E+00  8.73E-06  1.64E-04  1.73E-03  0.05070
    436.   22.936  8.28E-06  1.57E-04  3.11E-07  5.92E-06  0.00E+00  0.00E+00  8.60E-06  1.63E-04  1.75E-03  0.03344
    438.   22.831  8.16E-06  1.57E-04  7.57E-07  1.45E-05  0.00E+00  0.00E+00  8.92E-06  1.71E-04  1.77E-03  0.08115
    440.   22.727  8.04E-06  1.56E-04  6.22E-07  1.20E-05  0.00E+00  0.00E+00  8.66E-06  1.68E-04  1.78E-03  0.06666
    442.   22.624  7.79E-06  1.52E-04  8.99E-08  1.76E-06  0.00E+00  0.00E+00  7.88E-06  1.54E-04  1.80E-03  0.00963
    444.   22.523  8.06E-06  1.59E-04  1.90E-07  3.74E-06  0.00E+00  0.00E+00  8.25E-06  1.63E-04  1.82E-03  0.02026
    446.   22.422  8.28E-06  1.65E-04  4.01E-07  7.97E-06  0.00E+00  0.00E+00  8.68E-06  1.73E-04  1.83E-03  0.04273
    448.   22.321  7.86E-06  1.58E-04  1.07E-06  2.15E-05  0.00E+00  0.00E+00  8.93E-06  1.79E-04  1.85E-03  0.11392
    450.   22.222  7.83E-06  1.59E-04  1.27E-06  2.56E-05  0.00E+00  0.00E+00  9.10E-06  1.84E-04  1.87E-03  0.13476
    452.   22.124  8.22E-06  1.68E-04  5.02E-07  1.03E-05  0.00E+00  0.00E+00  8.72E-06  1.78E-04  1.89E-03  0.05337
    454.   22.026  8.42E-06  1.74E-04  2.76E-07  5.68E-06  0.00E+00  0.00E+00  8.70E-06  1.79E-04  1.90E-03  0.02926
    456.   21.930  8.02E-06  1.67E-04  1.38E-07  2.88E-06  0.00E+00  0.00E+00  8.15E-06  1.70E-04  1.92E-03  0.01468
    458.   21.834  7.59E-06  1.59E-04  5.10E-08  1.07E-06  0.00E+00  0.00E+00  7.64E-06  1.60E-04  1.94E-03  0.00539
    460.   21.739  8.25E-06  1.75E-04  3.31E-07  7.01E-06  0.00E+00  0.00E+00  8.58E-06  1.82E-04  1.95E-03  0.03503
    462.   21.645  7.86E-06  1.68E-04  1.22E-06  2.61E-05  0.00E+00  0.00E+00  9.08E-06  1.94E-04  1.97E-03  0.12906
    464.   21.552  7.07E-06  1.52E-04  2.20E-06  4.74E-05  0.00E+00  0.00E+00  9.28E-06  2.00E-04  1.99E-03  0.23260
    466.   21.459  7.40E-06  1.61E-04  1.74E-06  3.79E-05  0.00E+00  0.00E+00  9.14E-06  1.98E-04  2.01E-03  0.18418
    468.   21.368  8.13E-06  1.78E-04  7.40E-07  1.62E-05  0.00E+00  0.00E+00  8.87E-06  1.94E-04  2.03E-03  0.07804
    470.   21.277  8.18E-06  1.81E-04  5.50E-07  1.21E-05  0.00E+00  0.00E+00  8.72E-06  1.93E-04  2.04E-03  0.05793
    472.   21.186  7.75E-06  1.73E-04  1.50E-07  3.34E-06  0.00E+00  0.00E+00  7.90E-06  1.76E-04  2.06E-03  0.01580
    474.   21.097  7.87E-06  1.77E-04  4.91E-07  1.10E-05  0.00E+00  0.00E+00  8.36E-06  1.88E-04  2.08E-03  0.05164
    476.   21.008  7.43E-06  1.68E-04  1.73E-06  3.92E-05  0.00E+00  0.00E+00  9.16E-06  2.08E-04  2.09E-03  0.18211
    478.   20.921  6.29E-06  1.44E-04  3.06E-06  6.99E-05  0.00E+00  0.00E+00  9.35E-06  2.14E-04  2.11E-03  0.32180
    480.   20.833  6.59E-06  1.52E-04  2.74E-06  6.30E-05  0.00E+00  0.00E+00  9.32E-06  2.15E-04  2.13E-03  0.28747
    482.   20.747  7.62E-06  1.77E-04  1.26E-06  2.92E-05  0.00E+00  0.00E+00  8.88E-06  2.06E-04  2.15E-03  0.13211
    484.   20.661  7.96E-06  1.86E-04  4.45E-07  1.04E-05  0.00E+00  0.00E+00  8.41E-06  1.97E-04  2.17E-03  0.04670
    486.   20.576  7.41E-06  1.75E-04  1.56E-06  3.69E-05  0.00E+00  0.00E+00  8.97E-06  2.12E-04  2.18E-03  0.16396
    488.   20.492  5.91E-06  1.41E-04  3.47E-06  8.26E-05  0.00E+00  0.00E+00  9.38E-06  2.23E-04  2.20E-03  0.36391
    490.   20.408  6.19E-06  1.49E-04  3.07E-06  7.38E-05  0.00E+00  0.00E+00  9.26E-06  2.22E-04  2.22E-03  0.32214
    492.   20.325  7.53E-06  1.82E-04  1.33E-06  3.21E-05  0.00E+00  0.00E+00  8.85E-06  2.14E-04  2.24E-03  0.13911
    494.   20.243  6.58E-06  1.61E-04  2.60E-06  6.35E-05  0.00E+00  0.00E+00  9.19E-06  2.24E-04  2.26E-03  0.27258
    496.   20.161  4.75E-06  1.17E-04  4.72E-06  1.16E-04  0.00E+00  0.00E+00  9.47E-06  2.33E-04  2.28E-03  0.49478
    498.   20.080  4.69E-06  1.16E-04  4.78E-06  1.19E-04  0.00E+00  0.00E+00  9.48E-06  2.35E-04  2.29E-03  0.50125
    500.   20.000  6.27E-06  1.57E-04  2.92E-06  7.31E-05  0.00E+00  0.00E+00  9.20E-06  2.30E-04  2.31E-03  0.30622
  iv          505
1                                             RADIANCE(WATTS/CM2-STER-XXX)
0  FREQ   WAVLEN    PATH THERMAL      SURFACE EMISSION    SURFACE REFLECTED     TOTAL RADIANCE   INTEGRAL    TOTAL
  (CM-1) (MICRN)    (CM-1)   (MICRN)    (CM-1)   (MICRN)    (CM-1)   (MICRN)    (CM-1)   (MICRN)    (CM-1)   TRANS

    502.   19.920  7.88E-06  1.98E-04  7.45E-07  1.88E-05  0.00E+00  0.00E+00  8.62E-06  2.17E-04  2.33E-03  0.07799
    504.   19.841  8.02E-06  2.04E-04  8.75E-07  2.22E-05  0.00E+00  0.00E+00  8.89E-06  2.26E-04  2.35E-03  0.09166
    506.   19.763  7.92E-06  2.03E-04  7.62E-07  1.95E-05  0.00E+00  0.00E+00  8.68E-06  2.22E-04  2.37E-03  0.07978
    508.   19.685  7.30E-06  1.88E-04  1.56E-06  4.02E-05  0.00E+00  0.00E+00  8.86E-06  2.29E-04  2.38E-03  0.16336
    510.   19.608  6.74E-06  1.75E-04  2.54E-06  6.59E-05  0.00E+00  0.00E+00  9.28E-06  2.41E-04  2.40E-03  0.26556
    512.   19.531  6.06E-06  1.59E-04  3.25E-06  8.51E-05  0.00E+00  0.00E+00  9.31E-06  2.44E-04  2.42E-03  0.34009
    514.   19.455  6.09E-06  1.61E-04  3.25E-06  8.60E-05  0.00E+00  0.00E+00  9.35E-06  2.47E-04  2.44E-03  0.34097
    516.   19.380  7.78E-06  2.07E-04  9.77E-07  2.60E-05  0.00E+00  0.00E+00  8.76E-06  2.33E-04  2.46E-03  0.10235
    518.   19.305  8.22E-06  2.21E-04  1.31E-07  3.51E-06  0.00E+00  0.00E+00  8.35E-06  2.24E-04  2.47E-03  0.01371
    520.   19.231  7.44E-06  2.01E-04  1.27E-06  3.44E-05  0.00E+00  0.00E+00  8.71E-06  2.35E-04  2.49E-03  0.13341
    522.   19.157  5.61E-06  1.53E-04  3.66E-06  9.99E-05  0.00E+00  0.00E+00  9.27E-06  2.53E-04  2.51E-03  0.38435
    524.   19.084  6.41E-06  1.76E-04  2.68E-06  7.35E-05  0.00E+00  0.00E+00  9.09E-06  2.50E-04  2.53E-03  0.28088
    526.   19.011  7.28E-06  2.01E-04  1.41E-06  3.90E-05  0.00E+00  0.00E+00  8.68E-06  2.40E-04  2.54E-03  0.14782
    528.   18.939  5.29E-06  1.47E-04  3.94E-06  1.10E-04  0.00E+00  0.00E+00  9.23E-06  2.57E-04  2.56E-03  0.41369
    530.   18.868  3.54E-06  9.95E-05  5.92E-06  1.66E-04  0.00E+00  0.00E+00  9.46E-06  2.66E-04  2.58E-03  0.62146
    532.   18.797  3.29E-06  9.30E-05  6.18E-06  1.75E-04  0.00E+00  0.00E+00  9.46E-06  2.68E-04  2.60E-03  0.64895
    534.   18.727  4.39E-06  1.25E-04  4.93E-06  1.41E-04  0.00E+00  0.00E+00  9.32E-06  2.66E-04  2.62E-03  0.51877
    536.   18.657  5.84E-06  1.68E-04  3.21E-06  9.21E-05  0.00E+00  0.00E+00  9.05E-06  2.60E-04  2.64E-03  0.33737
    538.   18.587  4.55E-06  1.32E-04  4.75E-06  1.38E-04  0.00E+00  0.00E+00  9.30E-06  2.69E-04  2.66E-03  0.50009
    540.   18.519  4.18E-06  1.22E-04  5.13E-06  1.50E-04  0.00E+00  0.00E+00  9.31E-06  2.71E-04  2.68E-03  0.54001
    542.   18.450  4.66E-06  1.37E-04  4.61E-06  1.36E-04  0.00E+00  0.00E+00  9.28E-06  2.72E-04  2.69E-03  0.48629
    544.   18.382  5.51E-06  1.63E-04  3.40E-06  1.01E-04  0.00E+00  0.00E+00  8.92E-06  2.64E-04  2.71E-03  0.35869
    546.   18.315  7.44E-06  2.22E-04  1.09E-06  3.26E-05  0.00E+00  0.00E+00  8.54E-06  2.54E-04  2.73E-03  0.11543
    548.   18.248  6.66E-06  2.00E-04  2.27E-06  6.83E-05  0.00E+00  0.00E+00  8.93E-06  2.68E-04  2.75E-03  0.24006
    550.   18.182  5.60E-06  1.70E-04  3.48E-06  1.05E-04  0.00E+00  0.00E+00  9.08E-06  2.75E-04  2.76E-03  0.36783
    552.   18.116  4.44E-06  1.35E-04  4.84E-06  1.48E-04  0.00E+00  0.00E+00  9.29E-06  2.83E-04  2.78E-03  0.51226
    554.   18.051  4.68E-06  1.44E-04  4.51E-06  1.38E-04  0.00E+00  0.00E+00  9.19E-06  2.82E-04  2.80E-03  0.47746
    556.   17.986  4.43E-06  1.37E-04  4.75E-06  1.47E-04  0.00E+00  0.00E+00  9.17E-06  2.84E-04  2.82E-03  0.50304
    558.   17.921  3.08E-06  9.58E-05  6.27E-06  1.95E-04  0.00E+00  0.00E+00  9.35E-06  2.91E-04  2.84E-03  0.66530
    560.   17.857  2.55E-06  7.98E-05  6.82E-06  2.14E-04  0.00E+00  0.00E+00  9.36E-06  2.94E-04  2.86E-03  0.72372
    562.   17.794  3.75E-06  1.18E-04  5.42E-06  1.71E-04  0.00E+00  0.00E+00  9.17E-06  2.90E-04  2.88E-03  0.57625
    564.   17.730  4.66E-06  1.48E-04  4.47E-06  1.42E-04  0.00E+00  0.00E+00  9.13E-06  2.90E-04  2.89E-03  0.47551
    566.   17.668  5.31E-06  1.70E-04  3.65E-06  1.17E-04  0.00E+00  0.00E+00  8.96E-06  2.87E-04  2.91E-03  0.38813
    568.   17.606  7.37E-06  2.38E-04  1.20E-06  3.87E-05  0.00E+00  0.00E+00  8.57E-06  2.76E-04  2.93E-03  0.12792
    570.   17.544  7.01E-06  2.28E-04  1.76E-06  5.71E-05  0.00E+00  0.00E+00  8.77E-06  2.85E-04  2.95E-03  0.18764
    572.   17.483  4.69E-06  1.53E-04  4.41E-06  1.44E-04  0.00E+00  0.00E+00  9.10E-06  2.98E-04  2.96E-03  0.47077
    574.   17.422  4.28E-06  1.41E-04  4.70E-06  1.55E-04  0.00E+00  0.00E+00  8.98E-06  2.96E-04  2.98E-03  0.50209
    576.   17.361  6.16E-06  2.04E-04  2.46E-06  8.15E-05  0.00E+00  0.00E+00  8.61E-06  2.86E-04  3.00E-03  0.26298
    578.   17.301  5.87E-06  1.96E-04  2.85E-06  9.53E-05  0.00E+00  0.00E+00  8.73E-06  2.92E-04  3.02E-03  0.30586
    580.   17.241  6.01E-06  2.02E-04  2.48E-06  8.34E-05  0.00E+00  0.00E+00  8.48E-06  2.85E-04  3.03E-03  0.26592
    582.   17.182  6.22E-06  2.11E-04  2.09E-06  7.07E-05  0.00E+00  0.00E+00  8.30E-06  2.81E-04  3.05E-03  0.22427
    584.   17.123  5.97E-06  2.04E-04  2.33E-06  7.94E-05  0.00E+00  0.00E+00  8.30E-06  2.83E-04  3.07E-03  0.25039
    586.   17.065  5.96E-06  2.05E-04  2.11E-06  7.24E-05  0.00E+00  0.00E+00  8.06E-06  2.77E-04  3.08E-03  0.22718
    588.   17.007  5.62E-06  1.94E-04  2.33E-06  8.06E-05  0.00E+00  0.00E+00  7.96E-06  2.75E-04  3.10E-03  0.25168
    590.   16.949  6.41E-06  2.23E-04  1.24E-06  4.31E-05  0.00E+00  0.00E+00  7.65E-06  2.66E-04  3.11E-03  0.13371
    592.   16.892  6.92E-06  2.43E-04  4.48E-07  1.57E-05  0.00E+00  0.00E+00  7.37E-06  2.58E-04  3.13E-03  0.04844
    594.   16.835  6.67E-06  2.35E-04  3.65E-07  1.29E-05  0.00E+00  0.00E+00  7.03E-06  2.48E-04  3.14E-03  0.03956
    596.   16.779  6.26E-06  2.22E-04  2.75E-07  9.78E-06  0.00E+00  0.00E+00  6.54E-06  2.32E-04  3.16E-03  0.02987
    598.   16.722  6.21E-06  2.22E-04  4.45E-07  1.59E-05  0.00E+00  0.00E+00  6.65E-06  2.38E-04  3.17E-03  0.04834
    600.   16.667  6.42E-06  2.31E-04  6.25E-07  2.25E-05  0.00E+00  0.00E+00  7.04E-06  2.54E-04  3.18E-03  0.06801
  iv          605
1                                             RADIANCE(WATTS/CM2-STER-XXX)
0  FREQ   WAVLEN    PATH THERMAL      SURFACE EMISSION    SURFACE REFLECTED     TOTAL RADIANCE   INTEGRAL    TOTAL
  (CM-1) (MICRN)    (CM-1)   (MICRN)    (CM-1)   (MICRN)    (CM-1)   (MICRN)    (CM-1)   (MICRN)    (CM-1)   TRANS

    602.   16.611  6.26E-06  2.27E-04  5.03E-07  1.82E-05  0.00E+00  0.00E+00  6.76E-06  2.45E-04  3.20E-03  0.05488
    604.   16.556  6.23E-06  2.27E-04  2.82E-07  1.03E-05  0.00E+00  0.00E+00  6.51E-06  2.38E-04  3.21E-03  0.03078
    606.   16.502  6.09E-06  2.24E-04  2.08E-07  7.64E-06  0.00E+00  0.00E+00  6.30E-06  2.31E-04  3.22E-03  0.02277
    608.   16.447  6.02E-06  2.23E-04  1.87E-07  6.91E-06  0.00E+00  0.00E+00  6.21E-06  2.30E-04  3.24E-03  0.02048
    610.   16.393  6.13E-06  2.28E-04  2.52E-07  9.39E-06  0.00E+00  0.00E+00  6.38E-06  2.38E-04  3.25E-03  0.02770
    612.   16.340  6.12E-06  2.29E-04  2.92E-07  1.09E-05  0.00E+00  0.00E+00  6.42E-06  2.40E-04  3.26E-03  0.03213
    614.   16.287  5.88E-06  2.22E-04  1.30E-07  4.89E-06  0.00E+00  0.00E+00  6.01E-06  2.27E-04  3.27E-03  0.01429
    616.   16.234  5.36E-06  2.04E-04  2.58E-08  9.78E-07  0.00E+00  0.00E+00  5.39E-06  2.04E-04  3.28E-03  0.00284
    618.   16.181  5.20E-06  1.98E-04  1.25E-08  4.79E-07  0.00E+00  0.00E+00  5.21E-06  1.99E-04  3.29E-03  0.00139
    620.   16.129  5.65E-06  2.17E-04  4.79E-08  1.84E-06  0.00E+00  0.00E+00  5.70E-06  2.19E-04  3.31E-03  0.00530
    622.   16.077  5.64E-06  2.18E-04  5.48E-08  2.12E-06  0.00E+00  0.00E+00  5.69E-06  2.20E-04  3.32E-03  0.00608
    624.   16.026  5.39E-06  2.10E-04  2.87E-08  1.12E-06  0.00E+00  0.00E+00  5.42E-06  2.11E-04  3.33E-03  0.00319
    626.   15.974  5.19E-06  2.04E-04  3.14E-09  1.23E-07  0.00E+00  0.00E+00  5.20E-06  2.04E-04  3.34E-03  0.00035
    628.   15.924  5.01E-06  1.97E-04  1.05E-09  4.14E-08  0.00E+00  0.00E+00  5.01E-06  1.97E-04  3.35E-03  0.00012
    630.   15.873  4.89E-06  1.94E-04  2.76E-10  1.10E-08  0.00E+00  0.00E+00  4.89E-06  1.94E-04  3.36E-03  0.00003
    632.   15.823  4.80E-06  1.92E-04  4.06E-11  1.62E-09  0.00E+00  0.00E+00  4.80E-06  1.92E-04  3.37E-03  0.00000
    634.   15.773  4.73E-06  1.90E-04  5.28E-12  2.12E-10  0.00E+00  0.00E+00  4.73E-06  1.90E-04  3.38E-03  0.00000
    636.   15.723  4.67E-06  1.89E-04  1.99E-13  8.05E-12  0.00E+00  0.00E+00  4.67E-06  1.89E-04  3.39E-03  0.00000
    638.   15.674  4.63E-06  1.88E-04  6.99E-16  2.84E-14  0.00E+00  0.00E+00  4.63E-06  1.88E-04  3.40E-03  0.00000
    640.   15.625  4.60E-06  1.88E-04  5.66E-17  2.32E-15  0.00E+00  0.00E+00  4.60E-06  1.88E-04  3.41E-03  0.00000
    642.   15.576  4.58E-06  1.89E-04  9.55E-19  3.93E-17  0.00E+00  0.00E+00  4.58E-06  1.89E-04  3.41E-03  0.00000
    644.   15.528  4.57E-06  1.89E-04  4.70E-22  1.95E-20  0.00E+00  0.00E+00  4.57E-06  1.89E-04  3.42E-03  0.00000
    646.   15.480  4.57E-06  1.91E-04  1.31E-23  5.46E-22  0.00E+00  0.00E+00  4.57E-06  1.91E-04  3.43E-03  0.00000
    648.   15.432  4.67E-06  1.96E-04  5.79E-26  2.43E-24  0.00E+00  0.00E+00  4.67E-06  1.96E-04  3.44E-03  0.00000
    650.   15.385  4.67E-06  1.97E-04  5.38E-32  2.27E-30  0.00E+00  0.00E+00  4.67E-06  1.97E-04  3.45E-03  0.00000
    652.   15.337  4.53E-06  1.93E-04  1.70E-31  7.21E-30  0.00E+00  0.00E+00  4.53E-06  1.93E-04  3.46E-03  0.00000
    654.   15.291  4.48E-06  1.92E-04  8.01E-27  3.43E-25  0.00E+00  0.00E+00  4.48E-06  1.92E-04  3.47E-03  0.00000
    656.   15.244  4.47E-06  1.92E-04  8.01E-27  3.45E-25  0.00E+00  0.00E+00  4.47E-06  1.92E-04  3.48E-03  0.00000
    658.   15.198  4.46E-06  1.93E-04  3.55E-32  1.54E-30  0.00E+00  0.00E+00  4.46E-06  1.93E-04  3.49E-03  0.00000
    660.   15.152  4.44E-06  1.93E-04  2.35E-32  1.03E-30  0.00E+00  0.00E+00  4.44E-06  1.93E-04  3.50E-03  0.00000
    662.   15.106  4.52E-06  1.98E-04  1.21E-32  5.31E-31  0.00E+00  0.00E+00  4.52E-06  1.98E-04  3.51E-03  0.00000
    664.   15.060  4.51E-06  1.99E-04  0.00E+00  0.00E+00  0.00E+00  0.00E+00  4.51E-06  1.99E-04  3.51E-03  0.00000
    666.   15.015  4.88E-06  2.17E-04  0.00E+00  0.00E+00  0.00E+00  0.00E+00  4.88E-06  2.17E-04  3.52E-03  0.00000
    668.   14.970  5.56E-06  2.48E-04  0.00E+00  0.00E+00  0.00E+00  0.00E+00  5.56E-06  2.48E-04  3.54E-03  0.00000
    670.   14.925  4.87E-06  2.19E-04  0.00E+00  0.00E+00  0.00E+00  0.00E+00  4.87E-06  2.19E-04  3.54E-03  0.00000
    672.   14.881  4.38E-06  1.98E-04  6.97E-38  3.15E-36  0.00E+00  0.00E+00  4.38E-06  1.98E-04  3.55E-03  0.00000
    674.   14.837  4.33E-06  1.97E-04  2.47E-32  1.12E-30  0.00E+00  0.00E+00  4.33E-06  1.97E-04  3.56E-03  0.00000
    676.   14.793  4.29E-06  1.96E-04  7.40E-32  3.38E-30  0.00E+00  0.00E+00  4.29E-06  1.96E-04  3.57E-03  0.00000
    678.   14.749  4.29E-06  1.97E-04  2.47E-32  1.13E-30  0.00E+00  0.00E+00  4.29E-06  1.97E-04  3.58E-03  0.00000
    680.   14.706  4.27E-06  1.97E-04  3.42E-38  1.58E-36  0.00E+00  0.00E+00  4.27E-06  1.97E-04  3.59E-03  0.00000
    682.   14.663  4.24E-06  1.97E-04  7.74E-29  3.60E-27  0.00E+00  0.00E+00  4.24E-06  1.97E-04  3.60E-03  0.00000
    684.   14.620  4.20E-06  1.96E-04  2.71E-28  1.27E-26  0.00E+00  0.00E+00  4.20E-06  1.96E-04  3.60E-03  0.00000
    686.   14.577  4.19E-06  1.97E-04  1.96E-28  9.21E-27  0.00E+00  0.00E+00  4.19E-06  1.97E-04  3.61E-03  0.00000
    688.   14.535  4.16E-06  1.97E-04  1.27E-27  6.00E-26  0.00E+00  0.00E+00  4.16E-06  1.97E-04  3.62E-03  0.00000
    690.   14.493  4.14E-06  1.97E-04  4.40E-20  2.09E-18  0.00E+00  0.00E+00  4.14E-06  1.97E-04  3.63E-03  0.00000
    692.   14.451  4.10E-06  1.97E-04  5.57E-19  2.67E-17  0.00E+00  0.00E+00  4.10E-06  1.97E-04  3.64E-03  0.00000
    694.   14.409  4.09E-06  1.97E-04  1.90E-18  9.17E-17  0.00E+00  0.00E+00  4.09E-06  1.97E-04  3.65E-03  0.00000
    696.   14.368  4.07E-06  1.97E-04  1.23E-16  5.97E-15  0.00E+00  0.00E+00  4.07E-06  1.97E-04  3.65E-03  0.00000
    698.   14.327  4.07E-06  1.98E-04  1.72E-13  8.39E-12  0.00E+00  0.00E+00  4.07E-06  1.98E-04  3.66E-03  0.00000
    700.   14.286  4.07E-06  2.00E-04  5.55E-13  2.72E-11  0.00E+00  0.00E+00  4.07E-06  2.00E-04  3.67E-03  0.00000
  iv          705
1                                             RADIANCE(WATTS/CM2-STER-XXX)
0  FREQ   WAVLEN    PATH THERMAL      SURFACE EMISSION    SURFACE REFLECTED     TOTAL RADIANCE   INTEGRAL    TOTAL
  (CM-1) (MICRN)    (CM-1)   (MICRN)    (CM-1)   (MICRN)    (CM-1)   (MICRN)    (CM-1)   (MICRN)    (CM-1)   TRANS

    702.   14.245  4.08E-06  2.01E-04  3.45E-13  1.70E-11  0.00E+00  0.00E+00  4.08E-06  2.01E-04  3.68E-03  0.00000
    704.   14.205  4.16E-06  2.06E-04  4.60E-11  2.28E-09  0.00E+00  0.00E+00  4.16E-06  2.06E-04  3.69E-03  0.00001
    706.   14.164  4.28E-06  2.14E-04  2.91E-10  1.45E-08  0.00E+00  0.00E+00  4.28E-06  2.14E-04  3.70E-03  0.00004
    708.   14.124  4.36E-06  2.19E-04  1.59E-09  7.97E-08  0.00E+00  0.00E+00  4.36E-06  2.19E-04  3.70E-03  0.00020
    710.   14.085  4.43E-06  2.23E-04  7.32E-09  3.69E-07  0.00E+00  0.00E+00  4.44E-06  2.24E-04  3.71E-03  0.00090
    712.   14.045  4.58E-06  2.32E-04  2.03E-08  1.03E-06  0.00E+00  0.00E+00  4.60E-06  2.33E-04  3.72E-03  0.00252
    714.   14.006  4.71E-06  2.40E-04  3.55E-08  1.81E-06  0.00E+00  0.00E+00  4.75E-06  2.42E-04  3.73E-03  0.00441
    716.   13.966  4.73E-06  2.43E-04  4.59E-08  2.35E-06  0.00E+00  0.00E+00  4.78E-06  2.45E-04  3.74E-03  0.00571
    718.   13.928  4.39E-06  2.26E-04  1.99E-08  1.02E-06  0.00E+00  0.00E+00  4.41E-06  2.27E-04  3.75E-03  0.00248
    720.   13.889  4.09E-06  2.12E-04  9.03E-10  4.68E-08  0.00E+00  0.00E+00  4.09E-06  2.12E-04  3.76E-03  0.00011
    722.   13.850  4.59E-06  2.39E-04  1.04E-07  5.41E-06  0.00E+00  0.00E+00  4.69E-06  2.44E-04  3.77E-03  0.01307
    724.   13.812  4.95E-06  2.60E-04  3.62E-07  1.90E-05  0.00E+00  0.00E+00  5.31E-06  2.79E-04  3.78E-03  0.04564
    726.   13.774  4.98E-06  2.62E-04  6.32E-07  3.33E-05  0.00E+00  0.00E+00  5.61E-06  2.96E-04  3.79E-03  0.07996
    728.   13.736  5.00E-06  2.65E-04  4.23E-07  2.24E-05  0.00E+00  0.00E+00  5.43E-06  2.88E-04  3.80E-03  0.05357
    730.   13.699  4.90E-06  2.61E-04  2.26E-07  1.21E-05  0.00E+00  0.00E+00  5.13E-06  2.73E-04  3.81E-03  0.02879
    732.   13.661  4.89E-06  2.62E-04  2.16E-07  1.16E-05  0.00E+00  0.00E+00  5.11E-06  2.74E-04  3.82E-03  0.02759
    734.   13.624  4.90E-06  2.64E-04  2.54E-07  1.37E-05  0.00E+00  0.00E+00  5.15E-06  2.77E-04  3.83E-03  0.03254
    736.   13.587  4.88E-06  2.64E-04  2.79E-07  1.51E-05  0.00E+00  0.00E+00  5.16E-06  2.79E-04  3.84E-03  0.03587
    738.   13.550  4.88E-06  2.66E-04  2.61E-07  1.42E-05  0.00E+00  0.00E+00  5.14E-06  2.80E-04  3.85E-03  0.03367
    740.   13.514  4.76E-06  2.60E-04  1.84E-07  1.01E-05  0.00E+00  0.00E+00  4.94E-06  2.71E-04  3.86E-03  0.02378
    742.   13.477  4.60E-06  2.53E-04  4.41E-07  2.43E-05  0.00E+00  0.00E+00  5.04E-06  2.77E-04  3.87E-03  0.05723
    744.   13.441  4.71E-06  2.61E-04  1.00E-06  5.55E-05  0.00E+00  0.00E+00  5.71E-06  3.16E-04  3.88E-03  0.13053
    746.   13.405  4.59E-06  2.56E-04  1.42E-06  7.92E-05  0.00E+00  0.00E+00  6.02E-06  3.35E-04  3.90E-03  0.18586
    748.   13.369  4.40E-06  2.46E-04  1.74E-06  9.73E-05  0.00E+00  0.00E+00  6.14E-06  3.44E-04  3.91E-03  0.22787
    750.   13.333  4.13E-06  2.32E-04  2.11E-06  1.19E-04  0.00E+00  0.00E+00  6.24E-06  3.51E-04  3.92E-03  0.27746
    752.   13.298  3.93E-06  2.22E-04  2.47E-06  1.40E-04  0.00E+00  0.00E+00  6.40E-06  3.62E-04  3.93E-03  0.32556
    754.   13.263  3.98E-06  2.26E-04  2.53E-06  1.44E-04  0.00E+00  0.00E+00  6.51E-06  3.70E-04  3.95E-03  0.33515
    756.   13.228  3.74E-06  2.14E-04  2.85E-06  1.63E-04  0.00E+00  0.00E+00  6.59E-06  3.77E-04  3.96E-03  0.37833
    758.   13.193  2.96E-06  1.70E-04  3.80E-06  2.19E-04  0.00E+00  0.00E+00  6.76E-06  3.89E-04  3.97E-03  0.50692
    760.   13.158  2.28E-06  1.32E-04  4.70E-06  2.71E-04  0.00E+00  0.00E+00  6.98E-06  4.03E-04  3.99E-03  0.62812
    762.   13.123  1.87E-06  1.09E-04  5.20E-06  3.02E-04  0.00E+00  0.00E+00  7.07E-06  4.11E-04  4.00E-03  0.69696
    764.   13.089  1.54E-06  8.98E-05  5.58E-06  3.26E-04  0.00E+00  0.00E+00  7.12E-06  4.16E-04  4.02E-03  0.75134
    766.   13.055  1.29E-06  7.55E-05  5.88E-06  3.45E-04  0.00E+00  0.00E+00  7.17E-06  4.21E-04  4.03E-03  0.79420
    768.   13.021  1.33E-06  7.82E-05  5.86E-06  3.45E-04  0.00E+00  0.00E+00  7.18E-06  4.24E-04  4.04E-03  0.79348
    770.   12.987  1.28E-06  7.60E-05  5.89E-06  3.49E-04  0.00E+00  0.00E+00  7.17E-06  4.25E-04  4.06E-03  0.80148
    772.   12.953  8.29E-07  4.94E-05  6.36E-06  3.79E-04  0.00E+00  0.00E+00  7.19E-06  4.29E-04  4.07E-03  0.86841
    774.   12.920  8.01E-07  4.80E-05  6.38E-06  3.82E-04  0.00E+00  0.00E+00  7.18E-06  4.30E-04  4.09E-03  0.87405
    776.   12.887  1.26E-06  7.59E-05  5.88E-06  3.54E-04  0.00E+00  0.00E+00  7.14E-06  4.30E-04  4.10E-03  0.80835
    778.   12.853  1.10E-06  6.66E-05  6.03E-06  3.65E-04  0.00E+00  0.00E+00  7.13E-06  4.32E-04  4.12E-03  0.83225
    780.   12.821  6.42E-07  3.91E-05  6.50E-06  3.95E-04  0.00E+00  0.00E+00  7.14E-06  4.34E-04  4.13E-03  0.89925
    782.   12.788  7.25E-07  4.43E-05  6.38E-06  3.90E-04  0.00E+00  0.00E+00  7.10E-06  4.34E-04  4.14E-03  0.88578
    784.   12.755  1.21E-06  7.44E-05  5.84E-06  3.59E-04  0.00E+00  0.00E+00  7.05E-06  4.33E-04  4.16E-03  0.81368
    786.   12.723  6.86E-07  4.24E-05  6.38E-06  3.94E-04  0.00E+00  0.00E+00  7.07E-06  4.37E-04  4.17E-03  0.89325
    788.   12.690  3.28E-07  2.04E-05  6.74E-06  4.19E-04  0.00E+00  0.00E+00  7.07E-06  4.39E-04  4.19E-03  0.94745
    790.   12.658  9.14E-07  5.70E-05  5.98E-06  3.73E-04  0.00E+00  0.00E+00  6.89E-06  4.30E-04  4.20E-03  0.84219
    792.   12.626  1.92E-06  1.21E-04  4.68E-06  2.94E-04  0.00E+00  0.00E+00  6.61E-06  4.15E-04  4.21E-03  0.66284
    794.   12.594  1.52E-06  9.61E-05  5.29E-06  3.33E-04  0.00E+00  0.00E+00  6.81E-06  4.29E-04  4.23E-03  0.75118
    796.   12.563  1.42E-06  8.99E-05  5.45E-06  3.46E-04  0.00E+00  0.00E+00  6.87E-06  4.35E-04  4.24E-03  0.77748
    798.   12.531  1.59E-06  1.01E-04  5.24E-06  3.34E-04  0.00E+00  0.00E+00  6.83E-06  4.35E-04  4.25E-03  0.75018
    800.   12.500  1.16E-06  7.39E-05  5.68E-06  3.64E-04  0.00E+00  0.00E+00  6.84E-06  4.38E-04  4.27E-03  0.81646
  iv          805
1                                             RADIANCE(WATTS/CM2-STER-XXX)
0  FREQ   WAVLEN    PATH THERMAL      SURFACE EMISSION    SURFACE REFLECTED     TOTAL RADIANCE   INTEGRAL    TOTAL
  (CM-1) (MICRN)    (CM-1)   (MICRN)    (CM-1)   (MICRN)    (CM-1)   (MICRN)    (CM-1)   (MICRN)    (CM-1)   TRANS

    802.   12.469  6.70E-07  4.31E-05  6.19E-06  3.98E-04  0.00E+00  0.00E+00  6.86E-06  4.41E-04  4.28E-03  0.89241
    804.   12.438  8.51E-07  5.50E-05  5.98E-06  3.86E-04  0.00E+00  0.00E+00  6.83E-06  4.41E-04  4.30E-03  0.86520
    806.   12.407  6.37E-07  4.14E-05  6.18E-06  4.01E-04  0.00E+00  0.00E+00  6.81E-06  4.43E-04  4.31E-03  0.89737
    808.   12.376  7.09E-07  4.63E-05  6.08E-06  3.97E-04  0.00E+00  0.00E+00  6.79E-06  4.43E-04  4.32E-03  0.88642
    810.   12.346  4.63E-07  3.04E-05  6.31E-06  4.14E-04  0.00E+00  0.00E+00  6.78E-06  4.45E-04  4.34E-03  0.92470
    812.   12.315  3.76E-07  2.48E-05  6.38E-06  4.21E-04  0.00E+00  0.00E+00  6.76E-06  4.46E-04  4.35E-03  0.93860
    814.   12.285  5.61E-07  3.72E-05  6.18E-06  4.09E-04  0.00E+00  0.00E+00  6.74E-06  4.46E-04  4.36E-03  0.91138
    816.   12.255  4.27E-07  2.84E-05  6.29E-06  4.19E-04  0.00E+00  0.00E+00  6.72E-06  4.47E-04  4.38E-03  0.93195
    818.   12.225  2.24E-07  1.50E-05  6.48E-06  4.33E-04  0.00E+00  0.00E+00  6.70E-06  4.48E-04  4.39E-03  0.96341
    820.   12.195  1.95E-07  1.31E-05  6.48E-06  4.36E-04  0.00E+00  0.00E+00  6.68E-06  4.49E-04  4.40E-03  0.96835
    822.   12.165  1.76E-07  1.19E-05  6.48E-06  4.38E-04  0.00E+00  0.00E+00  6.66E-06  4.50E-04  4.42E-03  0.97173
    824.   12.136  2.48E-07  1.68E-05  6.38E-06  4.33E-04  0.00E+00  0.00E+00  6.63E-06  4.50E-04  4.43E-03  0.96064
    826.   12.107  3.37E-07  2.30E-05  6.27E-06  4.27E-04  0.00E+00  0.00E+00  6.60E-06  4.50E-04  4.44E-03  0.94687
    828.   12.077  3.98E-07  2.73E-05  6.18E-06  4.23E-04  0.00E+00  0.00E+00  6.57E-06  4.51E-04  4.46E-03  0.93701
    830.   12.048  2.14E-07  1.48E-05  6.34E-06  4.37E-04  0.00E+00  0.00E+00  6.55E-06  4.52E-04  4.47E-03  0.96604
    832.   12.019  1.25E-07  8.68E-06  6.41E-06  4.44E-04  0.00E+00  0.00E+00  6.53E-06  4.52E-04  4.48E-03  0.98012
    834.   11.990  1.29E-07  8.97E-06  6.38E-06  4.44E-04  0.00E+00  0.00E+00  6.51E-06  4.53E-04  4.50E-03  0.97941
    836.   11.962  1.42E-07  9.92E-06  6.34E-06  4.43E-04  0.00E+00  0.00E+00  6.48E-06  4.53E-04  4.51E-03  0.97716
    838.   11.933  2.06E-07  1.45E-05  6.24E-06  4.38E-04  0.00E+00  0.00E+00  6.45E-06  4.53E-04  4.52E-03  0.96651
    840.   11.905  3.59E-07  2.54E-05  6.06E-06  4.27E-04  0.00E+00  0.00E+00  6.41E-06  4.53E-04  4.53E-03  0.94154
    842.   11.876  2.70E-07  1.91E-05  6.12E-06  4.34E-04  0.00E+00  0.00E+00  6.39E-06  4.53E-04  4.55E-03  0.95500
    844.   11.848  1.77E-07  1.26E-05  6.18E-06  4.40E-04  0.00E+00  0.00E+00  6.36E-06  4.53E-04  4.56E-03  0.96895
    846.   11.820  1.68E-07  1.21E-05  6.16E-06  4.41E-04  0.00E+00  0.00E+00  6.33E-06  4.53E-04  4.57E-03  0.96945
    848.   11.792  2.50E-07  1.80E-05  6.05E-06  4.35E-04  0.00E+00  0.00E+00  6.30E-06  4.53E-04  4.58E-03  0.95573
    850.   11.765  5.25E-07  3.80E-05  5.73E-06  4.14E-04  0.00E+00  0.00E+00  6.26E-06  4.52E-04  4.60E-03  0.90982
    852.   11.737  7.22E-07  5.24E-05  5.51E-06  4.00E-04  0.00E+00  0.00E+00  6.23E-06  4.52E-04  4.61E-03  0.87803
    854.   11.710  4.97E-07  3.63E-05  5.72E-06  4.18E-04  0.00E+00  0.00E+00  6.22E-06  4.54E-04  4.62E-03  0.91668
    856.   11.682  2.39E-07  1.75E-05  5.97E-06  4.37E-04  0.00E+00  0.00E+00  6.21E-06  4.55E-04  4.63E-03  0.95984
    858.   11.655  1.11E-07  8.18E-06  6.08E-06  4.47E-04  0.00E+00  0.00E+00  6.19E-06  4.56E-04  4.65E-03  0.98142
    860.   11.628  1.04E-07  7.71E-06  6.06E-06  4.48E-04  0.00E+00  0.00E+00  6.16E-06  4.56E-04  4.66E-03  0.98279
    862.   11.601  9.37E-08  6.96E-06  6.05E-06  4.49E-04  0.00E+00  0.00E+00  6.14E-06  4.56E-04  4.67E-03  0.98451
    864.   11.574  1.70E-07  1.27E-05  5.94E-06  4.43E-04  0.00E+00  0.00E+00  6.11E-06  4.56E-04  4.68E-03  0.97156
    866.   11.547  1.67E-07  1.25E-05  5.92E-06  4.44E-04  0.00E+00  0.00E+00  6.08E-06  4.56E-04  4.70E-03  0.97210
    868.   11.521  8.95E-08  6.74E-06  5.97E-06  4.50E-04  0.00E+00  0.00E+00  6.06E-06  4.57E-04  4.71E-03  0.98498
    870.   11.494  2.09E-07  1.58E-05  5.82E-06  4.40E-04  0.00E+00  0.00E+00  6.03E-06  4.56E-04  4.72E-03  0.96402
    872.   11.468  2.14E-07  1.63E-05  5.79E-06  4.40E-04  0.00E+00  0.00E+00  6.00E-06  4.56E-04  4.73E-03  0.96300
    874.   11.442  9.21E-08  7.04E-06  5.89E-06  4.50E-04  0.00E+00  0.00E+00  5.98E-06  4.57E-04  4.74E-03  0.98411
    876.   11.416  9.34E-08  7.16E-06  5.86E-06  4.50E-04  0.00E+00  0.00E+00  5.95E-06  4.57E-04  4.76E-03  0.98373
    878.   11.390  1.56E-07  1.20E-05  5.77E-06  4.45E-04  0.00E+00  0.00E+00  5.92E-06  4.57E-04  4.77E-03  0.97268
    880.   11.364  1.79E-07  1.39E-05  5.72E-06  4.43E-04  0.00E+00  0.00E+00  5.90E-06  4.57E-04  4.78E-03  0.96841
    882.   11.338  1.59E-07  1.23E-05  5.71E-06  4.44E-04  0.00E+00  0.00E+00  5.87E-06  4.57E-04  4.79E-03  0.97172
    884.   11.312  1.93E-07  1.51E-05  5.65E-06  4.42E-04  0.00E+00  0.00E+00  5.84E-06  4.57E-04  4.80E-03  0.96560
    886.   11.287  2.65E-07  2.08E-05  5.55E-06  4.35E-04  0.00E+00  0.00E+00  5.81E-06  4.56E-04  4.81E-03  0.95195
    888.   11.261  2.71E-07  2.13E-05  5.51E-06  4.35E-04  0.00E+00  0.00E+00  5.78E-06  4.56E-04  4.83E-03  0.95082
    890.   11.236  1.44E-07  1.14E-05  5.62E-06  4.45E-04  0.00E+00  0.00E+00  5.77E-06  4.57E-04  4.84E-03  0.97387
    892.   11.211  1.04E-07  8.26E-06  5.64E-06  4.49E-04  0.00E+00  0.00E+00  5.74E-06  4.57E-04  4.85E-03  0.98100
    894.   11.186  8.31E-08  6.64E-06  5.63E-06  4.50E-04  0.00E+00  0.00E+00  5.72E-06  4.57E-04  4.86E-03  0.98468
    896.   11.161  8.68E-08  6.97E-06  5.61E-06  4.50E-04  0.00E+00  0.00E+00  5.69E-06  4.57E-04  4.87E-03  0.98402
    898.   11.136  9.04E-08  7.29E-06  5.58E-06  4.50E-04  0.00E+00  0.00E+00  5.67E-06  4.57E-04  4.88E-03  0.98334
    900.   11.111  8.29E-08  6.71E-06  5.56E-06  4.50E-04  0.00E+00  0.00E+00  5.64E-06  4.57E-04  4.89E-03  0.98462
  iv          905
1                                             RADIANCE(WATTS/CM2-STER-XXX)
0  FREQ   WAVLEN    PATH THERMAL      SURFACE EMISSION    SURFACE REFLECTED     TOTAL RADIANCE   INTEGRAL    TOTAL
  (CM-1) (MICRN)    (CM-1)   (MICRN)    (CM-1)   (MICRN)    (CM-1)   (MICRN)    (CM-1)   (MICRN)    (CM-1)   TRANS

    902.   11.086  8.11E-08  6.60E-06  5.53E-06  4.50E-04  0.00E+00  0.00E+00  5.61E-06  4.57E-04  4.91E-03  0.98485
    904.   11.062  9.25E-08  7.56E-06  5.50E-06  4.49E-04  0.00E+00  0.00E+00  5.59E-06  4.57E-04  4.92E-03  0.98256
    906.   11.038  1.16E-07  9.56E-06  5.44E-06  4.47E-04  0.00E+00  0.00E+00  5.56E-06  4.56E-04  4.93E-03  0.97795
    908.   11.013  2.34E-07  1.93E-05  5.29E-06  4.36E-04  0.00E+00  0.00E+00  5.53E-06  4.56E-04  4.94E-03  0.95525
    910.   10.989  2.29E-07  1.90E-05  5.27E-06  4.36E-04  0.00E+00  0.00E+00  5.50E-06  4.55E-04  4.95E-03  0.95554
    912.   10.965  1.11E-07  9.24E-06  5.37E-06  4.46E-04  0.00E+00  0.00E+00  5.48E-06  4.56E-04  4.96E-03  0.97734
    914.   10.941  1.19E-07  9.90E-06  5.33E-06  4.45E-04  0.00E+00  0.00E+00  5.45E-06  4.55E-04  4.97E-03  0.97546
    916.   10.917  1.18E-07  9.90E-06  5.31E-06  4.45E-04  0.00E+00  0.00E+00  5.42E-06  4.55E-04  4.98E-03  0.97527
    918.   10.893  1.27E-07  1.07E-05  5.27E-06  4.44E-04  0.00E+00  0.00E+00  5.40E-06  4.55E-04  4.99E-03  0.97336
    920.   10.870  1.66E-07  1.40E-05  5.20E-06  4.40E-04  0.00E+00  0.00E+00  5.37E-06  4.54E-04  5.00E-03  0.96525
    922.   10.846  2.50E-07  2.12E-05  5.08E-06  4.32E-04  0.00E+00  0.00E+00  5.33E-06  4.53E-04  5.02E-03  0.94793
    924.   10.823  2.44E-07  2.08E-05  5.07E-06  4.33E-04  0.00E+00  0.00E+00  5.31E-06  4.54E-04  5.03E-03  0.94939
    926.   10.799  2.00E-07  1.72E-05  5.09E-06  4.36E-04  0.00E+00  0.00E+00  5.29E-06  4.54E-04  5.04E-03  0.95806
    928.   10.776  1.37E-07  1.18E-05  5.13E-06  4.42E-04  0.00E+00  0.00E+00  5.27E-06  4.53E-04  5.05E-03  0.96974
    930.   10.753  1.47E-07  1.27E-05  5.09E-06  4.40E-04  0.00E+00  0.00E+00  5.24E-06  4.53E-04  5.06E-03  0.96756
    932.   10.730  1.48E-07  1.29E-05  5.07E-06  4.40E-04  0.00E+00  0.00E+00  5.22E-06  4.53E-04  5.07E-03  0.96751
    934.   10.707  1.50E-07  1.30E-05  5.04E-06  4.40E-04  0.00E+00  0.00E+00  5.19E-06  4.53E-04  5.08E-03  0.96746
    936.   10.684  1.55E-07  1.36E-05  5.01E-06  4.39E-04  0.00E+00  0.00E+00  5.17E-06  4.53E-04  5.09E-03  0.96638
    938.   10.661  1.64E-07  1.44E-05  4.98E-06  4.38E-04  0.00E+00  0.00E+00  5.14E-06  4.52E-04  5.10E-03  0.96422
    940.   10.638  2.07E-07  1.83E-05  4.90E-06  4.33E-04  0.00E+00  0.00E+00  5.11E-06  4.51E-04  5.11E-03  0.95379
    942.   10.616  2.48E-07  2.20E-05  4.82E-06  4.28E-04  0.00E+00  0.00E+00  5.07E-06  4.50E-04  5.12E-03  0.94367
    944.   10.593  2.36E-07  2.11E-05  4.81E-06  4.29E-04  0.00E+00  0.00E+00  5.05E-06  4.50E-04  5.13E-03  0.94613
    946.   10.571  2.90E-07  2.59E-05  4.73E-06  4.23E-04  0.00E+00  0.00E+00  5.02E-06  4.49E-04  5.14E-03  0.93435
    948.   10.549  4.00E-07  3.60E-05  4.58E-06  4.12E-04  0.00E+00  0.00E+00  4.98E-06  4.48E-04  5.15E-03  0.90931
    950.   10.526  2.81E-07  2.53E-05  4.69E-06  4.23E-04  0.00E+00  0.00E+00  4.97E-06  4.49E-04  5.16E-03  0.93528
    952.   10.504  2.16E-07  1.96E-05  4.74E-06  4.30E-04  0.00E+00  0.00E+00  4.96E-06  4.49E-04  5.17E-03  0.94990
    954.   10.482  2.51E-07  2.28E-05  4.68E-06  4.26E-04  0.00E+00  0.00E+00  4.93E-06  4.49E-04  5.18E-03  0.94205
    956.   10.460  2.32E-07  2.12E-05  4.67E-06  4.27E-04  0.00E+00  0.00E+00  4.90E-06  4.48E-04  5.19E-03  0.94583
    958.   10.438  1.50E-07  1.38E-05  4.74E-06  4.35E-04  0.00E+00  0.00E+00  4.89E-06  4.49E-04  5.20E-03  0.96489
    960.   10.417  1.01E-07  9.31E-06  4.78E-06  4.41E-04  0.00E+00  0.00E+00  4.88E-06  4.50E-04  5.21E-03  0.97712
    962.   10.395  9.27E-08  8.58E-06  4.76E-06  4.41E-04  0.00E+00  0.00E+00  4.86E-06  4.49E-04  5.22E-03  0.97860
    964.   10.373  1.45E-07  1.34E-05  4.67E-06  4.34E-04  0.00E+00  0.00E+00  4.82E-06  4.48E-04  5.23E-03  0.96494
    966.   10.352  2.08E-07  1.94E-05  4.57E-06  4.27E-04  0.00E+00  0.00E+00  4.78E-06  4.46E-04  5.24E-03  0.94892
    968.   10.331  2.39E-07  2.24E-05  4.51E-06  4.22E-04  0.00E+00  0.00E+00  4.75E-06  4.45E-04  5.25E-03  0.94014
    970.   10.309  2.74E-07  2.58E-05  4.44E-06  4.18E-04  0.00E+00  0.00E+00  4.72E-06  4.44E-04  5.26E-03  0.93123
    972.   10.288  3.40E-07  3.21E-05  4.34E-06  4.10E-04  0.00E+00  0.00E+00  4.68E-06  4.42E-04  5.27E-03  0.91455
    974.   10.267  3.14E-07  2.98E-05  4.35E-06  4.13E-04  0.00E+00  0.00E+00  4.66E-06  4.42E-04  5.27E-03  0.92078
    976.   10.246  3.46E-07  3.30E-05  4.28E-06  4.08E-04  0.00E+00  0.00E+00  4.63E-06  4.41E-04  5.28E-03  0.91130
    978.   10.225  2.67E-07  2.55E-05  4.35E-06  4.16E-04  0.00E+00  0.00E+00  4.61E-06  4.41E-04  5.29E-03  0.92962
    980.   10.204  2.09E-07  2.01E-05  4.38E-06  4.21E-04  0.00E+00  0.00E+00  4.59E-06  4.41E-04  5.30E-03  0.94231
    982.   10.183  2.08E-07  2.01E-05  4.35E-06  4.20E-04  0.00E+00  0.00E+00  4.56E-06  4.40E-04  5.31E-03  0.94040
    984.   10.163  1.70E-07  1.65E-05  4.37E-06  4.23E-04  0.00E+00  0.00E+00  4.54E-06  4.39E-04  5.32E-03  0.94787
    986.   10.142  1.34E-07  1.30E-05  4.37E-06  4.24E-04  0.00E+00  0.00E+00  4.50E-06  4.37E-04  5.33E-03  0.95276
    988.   10.121  1.38E-07  1.35E-05  4.31E-06  4.21E-04  0.00E+00  0.00E+00  4.45E-06  4.34E-04  5.34E-03  0.94576
    990.   10.101  1.47E-07  1.44E-05  4.25E-06  4.17E-04  0.00E+00  0.00E+00  4.40E-06  4.31E-04  5.35E-03  0.93727
    992.   10.081  1.66E-07  1.63E-05  4.16E-06  4.10E-04  0.00E+00  0.00E+00  4.33E-06  4.26E-04  5.36E-03  0.92233
    994.   10.060  1.88E-07  1.86E-05  4.07E-06  4.02E-04  0.00E+00  0.00E+00  4.26E-06  4.21E-04  5.36E-03  0.90674
    996.   10.040  2.28E-07  2.26E-05  3.94E-06  3.91E-04  0.00E+00  0.00E+00  4.17E-06  4.13E-04  5.37E-03  0.88200
    998.   10.020  2.91E-07  2.90E-05  3.77E-06  3.75E-04  0.00E+00  0.00E+00  4.06E-06  4.04E-04  5.38E-03  0.84852
   1000.   10.000  3.49E-07  3.49E-05  3.61E-06  3.61E-04  0.00E+00  0.00E+00  3.96E-06  3.96E-04  5.39E-03  0.81651
  iv         1005
1                                             RADIANCE(WATTS/CM2-STER-XXX)
0  FREQ   WAVLEN    PATH THERMAL      SURFACE EMISSION    SURFACE REFLECTED     TOTAL RADIANCE   INTEGRAL    TOTAL
  (CM-1) (MICRN)    (CM-1)   (MICRN)    (CM-1)   (MICRN)    (CM-1)   (MICRN)    (CM-1)   (MICRN)    (CM-1)   TRANS

   1002.    9.980  4.05E-07  4.06E-05  3.42E-06  3.43E-04  0.00E+00  0.00E+00  3.82E-06  3.84E-04  5.40E-03  0.77772
   1004.    9.960  4.69E-07  4.73E-05  3.24E-06  3.26E-04  0.00E+00  0.00E+00  3.70E-06  3.73E-04  5.40E-03  0.73986
   1006.    9.940  5.42E-07  5.49E-05  3.00E-06  3.03E-04  0.00E+00  0.00E+00  3.54E-06  3.58E-04  5.41E-03  0.68885
   1008.    9.921  5.87E-07  5.96E-05  2.86E-06  2.90E-04  0.00E+00  0.00E+00  3.44E-06  3.50E-04  5.42E-03  0.65979
   1010.    9.901  6.77E-07  6.91E-05  2.63E-06  2.69E-04  0.00E+00  0.00E+00  3.31E-06  3.38E-04  5.42E-03  0.61131
   1012.    9.881  7.61E-07  7.79E-05  2.39E-06  2.44E-04  0.00E+00  0.00E+00  3.15E-06  3.22E-04  5.43E-03  0.55740
   1014.    9.862  8.28E-07  8.51E-05  2.20E-06  2.27E-04  0.00E+00  0.00E+00  3.03E-06  3.12E-04  5.44E-03  0.51746
   1016.    9.843  8.53E-07  8.81E-05  2.08E-06  2.15E-04  0.00E+00  0.00E+00  2.94E-06  3.03E-04  5.44E-03  0.49199
   1018.    9.823  9.24E-07  9.57E-05  1.87E-06  1.94E-04  0.00E+00  0.00E+00  2.79E-06  2.89E-04  5.45E-03  0.44340
   1020.    9.804  9.60E-07  9.99E-05  1.72E-06  1.79E-04  0.00E+00  0.00E+00  2.68E-06  2.79E-04  5.45E-03  0.41072
   1022.    9.785  9.93E-07  1.04E-04  1.60E-06  1.67E-04  0.00E+00  0.00E+00  2.59E-06  2.71E-04  5.46E-03  0.38401
   1024.    9.766  1.01E-06  1.06E-04  1.53E-06  1.60E-04  0.00E+00  0.00E+00  2.54E-06  2.66E-04  5.46E-03  0.36841
   1026.    9.747  1.00E-06  1.06E-04  1.52E-06  1.61E-04  0.00E+00  0.00E+00  2.53E-06  2.66E-04  5.47E-03  0.36953
   1028.    9.728  1.04E-06  1.10E-04  1.44E-06  1.52E-04  0.00E+00  0.00E+00  2.49E-06  2.63E-04  5.47E-03  0.35141
   1030.    9.709  1.05E-06  1.12E-04  1.38E-06  1.46E-04  0.00E+00  0.00E+00  2.43E-06  2.58E-04  5.48E-03  0.33703
   1032.    9.690  1.01E-06  1.08E-04  1.42E-06  1.52E-04  0.00E+00  0.00E+00  2.43E-06  2.59E-04  5.48E-03  0.35055
   1034.    9.671  1.01E-06  1.08E-04  1.38E-06  1.47E-04  0.00E+00  0.00E+00  2.39E-06  2.55E-04  5.49E-03  0.34052
   1036.    9.653  1.05E-06  1.13E-04  1.25E-06  1.34E-04  0.00E+00  0.00E+00  2.30E-06  2.47E-04  5.49E-03  0.31094
   1038.    9.634  1.11E-06  1.19E-04  1.10E-06  1.18E-04  0.00E+00  0.00E+00  2.20E-06  2.37E-04  5.50E-03  0.27414
   1040.    9.615  1.11E-06  1.20E-04  1.05E-06  1.14E-04  0.00E+00  0.00E+00  2.16E-06  2.34E-04  5.50E-03  0.26430
   1042.    9.597  8.00E-07  8.68E-05  1.92E-06  2.08E-04  0.00E+00  0.00E+00  2.72E-06  2.95E-04  5.51E-03  0.48583
   1044.    9.579  5.82E-07  6.34E-05  2.50E-06  2.73E-04  0.00E+00  0.00E+00  3.09E-06  3.36E-04  5.51E-03  0.63682
   1046.    9.560  8.36E-07  9.15E-05  1.75E-06  1.91E-04  0.00E+00  0.00E+00  2.59E-06  2.83E-04  5.52E-03  0.44718
   1048.    9.542  1.06E-06  1.16E-04  1.15E-06  1.26E-04  0.00E+00  0.00E+00  2.20E-06  2.42E-04  5.52E-03  0.29445
   1050.    9.524  1.14E-06  1.26E-04  9.29E-07  1.02E-04  0.00E+00  0.00E+00  2.07E-06  2.28E-04  5.53E-03  0.24028
   1052.    9.506  1.16E-06  1.28E-04  8.49E-07  9.40E-05  0.00E+00  0.00E+00  2.01E-06  2.22E-04  5.53E-03  0.22085
   1054.    9.488  1.16E-06  1.29E-04  8.00E-07  8.88E-05  0.00E+00  0.00E+00  1.96E-06  2.18E-04  5.54E-03  0.20905
   1056.    9.470  1.16E-06  1.29E-04  8.09E-07  9.02E-05  0.00E+00  0.00E+00  1.97E-06  2.19E-04  5.54E-03  0.21265
   1058.    9.452  1.07E-06  1.20E-04  1.01E-06  1.13E-04  0.00E+00  0.00E+00  2.09E-06  2.34E-04  5.54E-03  0.26819
   1060.    9.434  9.68E-07  1.09E-04  1.28E-06  1.43E-04  0.00E+00  0.00E+00  2.24E-06  2.52E-04  5.55E-03  0.33935
   1062.    9.416  8.46E-07  9.54E-05  1.57E-06  1.77E-04  0.00E+00  0.00E+00  2.42E-06  2.73E-04  5.55E-03  0.42001
   1064.    9.398  6.93E-07  7.84E-05  2.03E-06  2.30E-04  0.00E+00  0.00E+00  2.72E-06  3.08E-04  5.56E-03  0.54526
   1066.    9.381  6.14E-07  6.98E-05  2.43E-06  2.77E-04  0.00E+00  0.00E+00  3.05E-06  3.46E-04  5.56E-03  0.65817
   1068.    9.363  4.56E-07  5.20E-05  2.81E-06  3.20E-04  0.00E+00  0.00E+00  3.26E-06  3.72E-04  5.57E-03  0.76345
   1070.    9.346  3.43E-07  3.93E-05  3.08E-06  3.52E-04  0.00E+00  0.00E+00  3.42E-06  3.91E-04  5.58E-03  0.84096
   1072.    9.328  3.39E-07  3.90E-05  3.15E-06  3.63E-04  0.00E+00  0.00E+00  3.49E-06  4.02E-04  5.58E-03  0.86714
   1074.    9.311  4.23E-07  4.88E-05  3.04E-06  3.51E-04  0.00E+00  0.00E+00  3.46E-06  4.00E-04  5.59E-03  0.84063
   1076.    9.294  3.91E-07  4.53E-05  3.05E-06  3.53E-04  0.00E+00  0.00E+00  3.44E-06  3.98E-04  5.60E-03  0.84694
   1078.    9.276  3.01E-07  3.50E-05  3.15E-06  3.66E-04  0.00E+00  0.00E+00  3.45E-06  4.01E-04  5.61E-03  0.88106
   1080.    9.259  3.41E-07  3.97E-05  3.06E-06  3.57E-04  0.00E+00  0.00E+00  3.40E-06  3.97E-04  5.61E-03  0.86071
   1082.    9.242  3.08E-07  3.60E-05  3.08E-06  3.61E-04  0.00E+00  0.00E+00  3.39E-06  3.97E-04  5.62E-03  0.87199
   1084.    9.225  2.30E-07  2.71E-05  3.18E-06  3.74E-04  0.00E+00  0.00E+00  3.41E-06  4.01E-04  5.63E-03  0.90522
   1086.    9.208  2.28E-07  2.69E-05  3.16E-06  3.72E-04  0.00E+00  0.00E+00  3.38E-06  3.99E-04  5.63E-03  0.90222
   1088.    9.191  1.89E-07  2.24E-05  3.18E-06  3.76E-04  0.00E+00  0.00E+00  3.36E-06  3.98E-04  5.64E-03  0.91295
   1090.    9.174  2.08E-07  2.48E-05  3.15E-06  3.75E-04  0.00E+00  0.00E+00  3.36E-06  3.99E-04  5.65E-03  0.91198
   1092.    9.158  1.83E-07  2.18E-05  3.17E-06  3.78E-04  0.00E+00  0.00E+00  3.35E-06  4.00E-04  5.65E-03  0.92197
   1094.    9.141  1.01E-07  1.21E-05  3.23E-06  3.86E-04  0.00E+00  0.00E+00  3.33E-06  3.98E-04  5.66E-03  0.94425
   1096.    9.124  8.33E-08  1.00E-05  3.24E-06  3.89E-04  0.00E+00  0.00E+00  3.32E-06  3.99E-04  5.67E-03  0.95290
   1098.    9.107  1.12E-07  1.34E-05  3.19E-06  3.85E-04  0.00E+00  0.00E+00  3.30E-06  3.98E-04  5.67E-03  0.94445
   1100.    9.091  2.52E-07  3.05E-05  3.02E-06  3.65E-04  0.00E+00  0.00E+00  3.27E-06  3.96E-04  5.68E-03  0.89834
  iv         1105
1                                             RADIANCE(WATTS/CM2-STER-XXX)
0  FREQ   WAVLEN    PATH THERMAL      SURFACE EMISSION    SURFACE REFLECTED     TOTAL RADIANCE   INTEGRAL    TOTAL
  (CM-1) (MICRN)    (CM-1)   (MICRN)    (CM-1)   (MICRN)    (CM-1)   (MICRN)    (CM-1)   (MICRN)    (CM-1)   TRANS

   1102.    9.074  2.00E-07  2.43E-05  3.06E-06  3.71E-04  0.00E+00  0.00E+00  3.26E-06  3.96E-04  5.69E-03  0.91513
   1104.    9.058  8.45E-08  1.03E-05  3.17E-06  3.86E-04  0.00E+00  0.00E+00  3.25E-06  3.97E-04  5.69E-03  0.95405
   1106.    9.042  2.06E-07  2.52E-05  3.03E-06  3.70E-04  0.00E+00  0.00E+00  3.23E-06  3.96E-04  5.70E-03  0.91651
   1108.    9.025  1.97E-07  2.42E-05  3.02E-06  3.71E-04  0.00E+00  0.00E+00  3.22E-06  3.95E-04  5.71E-03  0.91968
   1110.    9.009  1.43E-07  1.76E-05  3.05E-06  3.76E-04  0.00E+00  0.00E+00  3.20E-06  3.94E-04  5.71E-03  0.93475
   1112.    8.993  2.59E-07  3.21E-05  2.90E-06  3.59E-04  0.00E+00  0.00E+00  3.16E-06  3.91E-04  5.72E-03  0.89355
   1114.    8.977  1.31E-07  1.63E-05  3.02E-06  3.74E-04  0.00E+00  0.00E+00  3.15E-06  3.90E-04  5.72E-03  0.93412
   1116.    8.961  7.43E-08  9.26E-06  3.05E-06  3.80E-04  0.00E+00  0.00E+00  3.13E-06  3.90E-04  5.73E-03  0.95133
   1118.    8.945  9.09E-08  1.14E-05  3.00E-06  3.75E-04  0.00E+00  0.00E+00  3.09E-06  3.87E-04  5.74E-03  0.94103
   1120.    8.929  2.55E-07  3.20E-05  2.81E-06  3.52E-04  0.00E+00  0.00E+00  3.06E-06  3.84E-04  5.74E-03  0.88522
   1122.    8.913  2.59E-07  3.27E-05  2.78E-06  3.50E-04  0.00E+00  0.00E+00  3.04E-06  3.83E-04  5.75E-03  0.88211
   1124.    8.897  8.83E-08  1.12E-05  2.94E-06  3.71E-04  0.00E+00  0.00E+00  3.02E-06  3.82E-04  5.75E-03  0.93653
   1126.    8.881  7.51E-08  9.53E-06  2.94E-06  3.72E-04  0.00E+00  0.00E+00  3.01E-06  3.82E-04  5.76E-03  0.94203
   1128.    8.865  6.82E-08  8.68E-06  2.94E-06  3.74E-04  0.00E+00  0.00E+00  3.01E-06  3.82E-04  5.77E-03  0.94774
   1130.    8.850  6.91E-08  8.82E-06  2.92E-06  3.73E-04  0.00E+00  0.00E+00  2.99E-06  3.82E-04  5.77E-03  0.94885
   1132.    8.834  7.26E-08  9.31E-06  2.91E-06  3.73E-04  0.00E+00  0.00E+00  2.98E-06  3.83E-04  5.78E-03  0.95087
   1134.    8.818  2.67E-07  3.43E-05  2.69E-06  3.46E-04  0.00E+00  0.00E+00  2.95E-06  3.80E-04  5.78E-03  0.88230
   1136.    8.803  6.54E-07  8.44E-05  2.24E-06  2.90E-04  0.00E+00  0.00E+00  2.90E-06  3.74E-04  5.79E-03  0.74150
   1138.    8.787  3.45E-07  4.47E-05  2.58E-06  3.34E-04  0.00E+00  0.00E+00  2.92E-06  3.79E-04  5.80E-03  0.85721
   1140.    8.772  6.29E-08  8.17E-06  2.88E-06  3.75E-04  0.00E+00  0.00E+00  2.94E-06  3.83E-04  5.80E-03  0.96337
   1142.    8.757  5.16E-08  6.72E-06  2.88E-06  3.75E-04  0.00E+00  0.00E+00  2.93E-06  3.82E-04  5.81E-03  0.96693
   1144.    8.741  4.77E-08  6.24E-06  2.86E-06  3.74E-04  0.00E+00  0.00E+00  2.91E-06  3.81E-04  5.81E-03  0.96763
   1146.    8.726  4.86E-08  6.39E-06  2.84E-06  3.74E-04  0.00E+00  0.00E+00  2.89E-06  3.80E-04  5.82E-03  0.96795
   1148.    8.711  1.81E-07  2.39E-05  2.68E-06  3.54E-04  0.00E+00  0.00E+00  2.87E-06  3.78E-04  5.83E-03  0.91880
   1150.    8.696  2.62E-07  3.46E-05  2.59E-06  3.42E-04  0.00E+00  0.00E+00  2.85E-06  3.77E-04  5.83E-03  0.89055
   1152.    8.681  2.63E-07  3.50E-05  2.57E-06  3.42E-04  0.00E+00  0.00E+00  2.84E-06  3.76E-04  5.84E-03  0.89159
   1154.    8.666  1.25E-07  1.66E-05  2.70E-06  3.60E-04  0.00E+00  0.00E+00  2.83E-06  3.77E-04  5.84E-03  0.94264
   1156.    8.651  4.87E-08  6.51E-06  2.77E-06  3.70E-04  0.00E+00  0.00E+00  2.81E-06  3.76E-04  5.85E-03  0.96945
   1158.    8.636  4.56E-08  6.11E-06  2.75E-06  3.69E-04  0.00E+00  0.00E+00  2.80E-06  3.75E-04  5.85E-03  0.97090
   1160.    8.621  5.15E-08  6.93E-06  2.73E-06  3.67E-04  0.00E+00  0.00E+00  2.78E-06  3.74E-04  5.86E-03  0.96856
   1162.    8.606  5.67E-08  7.65E-06  2.71E-06  3.66E-04  0.00E+00  0.00E+00  2.77E-06  3.74E-04  5.86E-03  0.96788
   1164.    8.591  2.64E-07  3.58E-05  2.47E-06  3.35E-04  0.00E+00  0.00E+00  2.74E-06  3.71E-04  5.87E-03  0.88822
   1166.    8.576  3.29E-07  4.48E-05  2.39E-06  3.25E-04  0.00E+00  0.00E+00  2.72E-06  3.70E-04  5.88E-03  0.86371
   1168.    8.562  8.81E-08  1.20E-05  2.64E-06  3.60E-04  0.00E+00  0.00E+00  2.72E-06  3.72E-04  5.88E-03  0.95830
   1170.    8.547  5.89E-08  8.06E-06  2.65E-06  3.63E-04  0.00E+00  0.00E+00  2.71E-06  3.71E-04  5.89E-03  0.96984
   1172.    8.532  1.63E-07  2.23E-05  2.53E-06  3.47E-04  0.00E+00  0.00E+00  2.69E-06  3.70E-04  5.89E-03  0.92998
   1174.    8.518  6.21E-07  8.56E-05  2.00E-06  2.75E-04  0.00E+00  0.00E+00  2.62E-06  3.61E-04  5.90E-03  0.73935
   1176.    8.503  4.69E-07  6.48E-05  2.14E-06  2.96E-04  0.00E+00  0.00E+00  2.61E-06  3.61E-04  5.90E-03  0.79879
   1178.    8.489  7.90E-08  1.10E-05  2.57E-06  3.57E-04  0.00E+00  0.00E+00  2.65E-06  3.68E-04  5.91E-03  0.96406
   1180.    8.475  7.57E-08  1.05E-05  2.56E-06  3.57E-04  0.00E+00  0.00E+00  2.64E-06  3.67E-04  5.91E-03  0.96520
   1182.    8.460  6.54E-08  9.13E-06  2.56E-06  3.57E-04  0.00E+00  0.00E+00  2.62E-06  3.66E-04  5.92E-03  0.96993
   1184.    8.446  6.62E-08  9.28E-06  2.54E-06  3.56E-04  0.00E+00  0.00E+00  2.61E-06  3.66E-04  5.92E-03  0.97012
   1186.    8.432  4.08E-07  5.74E-05  2.14E-06  3.01E-04  0.00E+00  0.00E+00  2.55E-06  3.58E-04  5.93E-03  0.82110
   1188.    8.418  4.78E-07  6.75E-05  2.05E-06  2.90E-04  0.00E+00  0.00E+00  2.53E-06  3.57E-04  5.93E-03  0.79348
   1190.    8.403  1.36E-07  1.93E-05  2.42E-06  3.43E-04  0.00E+00  0.00E+00  2.56E-06  3.62E-04  5.94E-03  0.94096
   1192.    8.389  8.76E-08  1.25E-05  2.45E-06  3.49E-04  0.00E+00  0.00E+00  2.54E-06  3.61E-04  5.94E-03  0.96000
   1194.    8.375  7.04E-08  1.00E-05  2.46E-06  3.51E-04  0.00E+00  0.00E+00  2.53E-06  3.61E-04  5.95E-03  0.96839
   1196.    8.361  1.82E-07  2.60E-05  2.32E-06  3.32E-04  0.00E+00  0.00E+00  2.50E-06  3.58E-04  5.95E-03  0.91850
   1198.    8.347  4.51E-07  6.47E-05  2.00E-06  2.88E-04  0.00E+00  0.00E+00  2.46E-06  3.52E-04  5.96E-03  0.79821
   1200.    8.333  2.31E-07  3.33E-05  2.24E-06  3.22E-04  0.00E+00  0.00E+00  2.47E-06  3.55E-04  5.96E-03  0.89653
  iv         1205
1                                             RADIANCE(WATTS/CM2-STER-XXX)
0  FREQ   WAVLEN    PATH THERMAL      SURFACE EMISSION    SURFACE REFLECTED     TOTAL RADIANCE   INTEGRAL    TOTAL
  (CM-1) (MICRN)    (CM-1)   (MICRN)    (CM-1)   (MICRN)    (CM-1)   (MICRN)    (CM-1)   (MICRN)    (CM-1)   TRANS

   1202.    8.319  6.47E-08  9.35E-06  2.40E-06  3.47E-04  0.00E+00  0.00E+00  2.47E-06  3.56E-04  5.97E-03  0.96812
   1204.    8.306  6.73E-08  9.75E-06  2.39E-06  3.46E-04  0.00E+00  0.00E+00  2.45E-06  3.56E-04  5.97E-03  0.96794
   1206.    8.292  9.60E-08  1.40E-05  2.34E-06  3.41E-04  0.00E+00  0.00E+00  2.44E-06  3.55E-04  5.98E-03  0.95705
   1208.    8.278  9.47E-08  1.38E-05  2.33E-06  3.40E-04  0.00E+00  0.00E+00  2.42E-06  3.54E-04  5.98E-03  0.95679
   1210.    8.264  4.22E-07  6.18E-05  1.93E-06  2.83E-04  0.00E+00  0.00E+00  2.35E-06  3.44E-04  5.99E-03  0.79733
   1212.    8.251  7.77E-07  1.14E-04  1.51E-06  2.22E-04  0.00E+00  0.00E+00  2.29E-06  3.36E-04  5.99E-03  0.62924
   1214.    8.237  3.68E-07  5.42E-05  1.98E-06  2.92E-04  0.00E+00  0.00E+00  2.35E-06  3.46E-04  6.00E-03  0.82990
   1216.    8.224  1.75E-07  2.59E-05  2.17E-06  3.21E-04  0.00E+00  0.00E+00  2.35E-06  3.47E-04  6.00E-03  0.91451
   1218.    8.210  4.09E-07  6.07E-05  1.89E-06  2.80E-04  0.00E+00  0.00E+00  2.29E-06  3.40E-04  6.01E-03  0.79856
   1220.    8.197  4.79E-07  7.13E-05  1.77E-06  2.64E-04  0.00E+00  0.00E+00  2.25E-06  3.35E-04  6.01E-03  0.75657
   1222.    8.183  3.10E-07  4.63E-05  1.95E-06  2.91E-04  0.00E+00  0.00E+00  2.26E-06  3.38E-04  6.02E-03  0.83748
   1224.    8.170  5.93E-07  8.89E-05  1.62E-06  2.42E-04  0.00E+00  0.00E+00  2.21E-06  3.31E-04  6.02E-03  0.69820
   1226.    8.157  6.65E-07  1.00E-04  1.54E-06  2.31E-04  0.00E+00  0.00E+00  2.20E-06  3.31E-04  6.02E-03  0.66892
   1228.    8.143  2.97E-07  4.47E-05  1.92E-06  2.89E-04  0.00E+00  0.00E+00  2.22E-06  3.34E-04  6.03E-03  0.83899
   1230.    8.130  2.46E-07  3.72E-05  1.94E-06  2.93E-04  0.00E+00  0.00E+00  2.18E-06  3.30E-04  6.03E-03  0.85179
   1232.    8.117  1.22E-07  1.85E-05  2.10E-06  3.18E-04  0.00E+00  0.00E+00  2.22E-06  3.37E-04  6.04E-03  0.92861
   1234.    8.104  1.44E-07  2.19E-05  2.05E-06  3.12E-04  0.00E+00  0.00E+00  2.19E-06  3.34E-04  6.04E-03  0.91369
   1236.    8.091  3.67E-07  5.61E-05  1.72E-06  2.63E-04  0.00E+00  0.00E+00  2.09E-06  3.19E-04  6.05E-03  0.77162
   1238.    8.078  4.39E-07  6.72E-05  1.63E-06  2.50E-04  0.00E+00  0.00E+00  2.07E-06  3.18E-04  6.05E-03  0.73753
   1240.    8.065  3.81E-07  5.85E-05  1.71E-06  2.62E-04  0.00E+00  0.00E+00  2.09E-06  3.21E-04  6.05E-03  0.77487
   1242.    8.052  5.55E-07  8.56E-05  1.45E-06  2.24E-04  0.00E+00  0.00E+00  2.01E-06  3.09E-04  6.06E-03  0.66239
   1244.    8.039  8.83E-07  1.37E-04  1.03E-06  1.60E-04  0.00E+00  0.00E+00  1.92E-06  2.97E-04  6.06E-03  0.47577
   1246.    8.026  6.88E-07  1.07E-04  1.21E-06  1.88E-04  0.00E+00  0.00E+00  1.90E-06  2.95E-04  6.07E-03  0.56119
   1248.    8.013  4.91E-07  7.64E-05  1.41E-06  2.19E-04  0.00E+00  0.00E+00  1.90E-06  2.95E-04  6.07E-03  0.65523
   1250.    8.000  4.32E-07  6.74E-05  1.53E-06  2.39E-04  0.00E+00  0.00E+00  1.96E-06  3.07E-04  6.07E-03  0.71804
   1252.    7.987  4.96E-07  7.78E-05  1.45E-06  2.28E-04  0.00E+00  0.00E+00  1.95E-06  3.06E-04  6.08E-03  0.68617
   1254.    7.974  5.72E-07  9.00E-05  1.26E-06  1.99E-04  0.00E+00  0.00E+00  1.84E-06  2.89E-04  6.08E-03  0.59977
   1256.    7.962  4.29E-07  6.76E-05  1.49E-06  2.35E-04  0.00E+00  0.00E+00  1.92E-06  3.03E-04  6.09E-03  0.71373
   1258.    7.949  5.98E-07  9.46E-05  1.30E-06  2.06E-04  0.00E+00  0.00E+00  1.90E-06  3.01E-04  6.09E-03  0.62584
   1260.    7.937  1.02E-06  1.62E-04  6.14E-07  9.75E-05  0.00E+00  0.00E+00  1.63E-06  2.59E-04  6.09E-03  0.29672
   1262.    7.924  8.98E-07  1.43E-04  7.41E-07  1.18E-04  0.00E+00  0.00E+00  1.64E-06  2.61E-04  6.10E-03  0.36156
   1264.    7.911  7.83E-07  1.25E-04  9.76E-07  1.56E-04  0.00E+00  0.00E+00  1.76E-06  2.81E-04  6.10E-03  0.47849
   1266.    7.899  9.87E-07  1.58E-04  7.29E-07  1.17E-04  0.00E+00  0.00E+00  1.72E-06  2.75E-04  6.10E-03  0.35923
   1268.    7.886  1.13E-06  1.82E-04  4.39E-07  7.05E-05  0.00E+00  0.00E+00  1.57E-06  2.52E-04  6.11E-03  0.21765
   1270.    7.874  1.23E-06  1.98E-04  2.68E-07  4.32E-05  0.00E+00  0.00E+00  1.49E-06  2.41E-04  6.11E-03  0.13383
   1272.    7.862  1.05E-06  1.69E-04  5.11E-07  8.26E-05  0.00E+00  0.00E+00  1.56E-06  2.52E-04  6.11E-03  0.25761
   1274.    7.849  6.74E-07  1.09E-04  1.06E-06  1.71E-04  0.00E+00  0.00E+00  1.73E-06  2.81E-04  6.12E-03  0.53482
   1276.    7.837  5.22E-07  8.50E-05  1.15E-06  1.87E-04  0.00E+00  0.00E+00  1.67E-06  2.72E-04  6.12E-03  0.58656
   1278.    7.825  4.20E-07  6.86E-05  1.36E-06  2.22E-04  0.00E+00  0.00E+00  1.78E-06  2.90E-04  6.12E-03  0.69681
   1280.    7.813  6.20E-07  1.02E-04  1.19E-06  1.95E-04  0.00E+00  0.00E+00  1.81E-06  2.96E-04  6.13E-03  0.61378
   1282.    7.800  7.73E-07  1.27E-04  7.91E-07  1.30E-04  0.00E+00  0.00E+00  1.56E-06  2.57E-04  6.13E-03  0.41089
   1284.    7.788  7.38E-07  1.22E-04  8.78E-07  1.45E-04  0.00E+00  0.00E+00  1.62E-06  2.66E-04  6.13E-03  0.45953
   1286.    7.776  8.05E-07  1.33E-04  8.67E-07  1.43E-04  0.00E+00  0.00E+00  1.67E-06  2.77E-04  6.14E-03  0.45579
   1288.    7.764  9.89E-07  1.64E-04  4.35E-07  7.22E-05  0.00E+00  0.00E+00  1.42E-06  2.36E-04  6.14E-03  0.23080
   1290.    7.752  8.05E-07  1.34E-04  7.99E-07  1.33E-04  0.00E+00  0.00E+00  1.60E-06  2.67E-04  6.14E-03  0.42679
   1292.    7.740  6.39E-07  1.07E-04  1.03E-06  1.72E-04  0.00E+00  0.00E+00  1.67E-06  2.78E-04  6.14E-03  0.55250
   1294.    7.728  7.05E-07  1.18E-04  7.83E-07  1.31E-04  0.00E+00  0.00E+00  1.49E-06  2.49E-04  6.15E-03  0.42253
   1296.    7.716  9.10E-07  1.53E-04  5.11E-07  8.58E-05  0.00E+00  0.00E+00  1.42E-06  2.39E-04  6.15E-03  0.27772
   1298.    7.704  7.83E-07  1.32E-04  6.10E-07  1.03E-04  0.00E+00  0.00E+00  1.39E-06  2.35E-04  6.15E-03  0.33443
   1300.    7.692  6.73E-07  1.14E-04  6.48E-07  1.10E-04  0.00E+00  0.00E+00  1.32E-06  2.23E-04  6.16E-03  0.35674
  iv         1305
1                                             RADIANCE(WATTS/CM2-STER-XXX)
0  FREQ   WAVLEN    PATH THERMAL      SURFACE EMISSION    SURFACE REFLECTED     TOTAL RADIANCE   INTEGRAL    TOTAL
  (CM-1) (MICRN)    (CM-1)   (MICRN)    (CM-1)   (MICRN)    (CM-1)   (MICRN)    (CM-1)   (MICRN)    (CM-1)   TRANS

   1302.    7.680  7.61E-07  1.29E-04  3.15E-07  5.33E-05  0.00E+00  0.00E+00  1.08E-06  1.82E-04  6.16E-03  0.17422
   1304.    7.669  7.06E-07  1.20E-04  9.14E-08  1.55E-05  0.00E+00  0.00E+00  7.97E-07  1.36E-04  6.16E-03  0.05086
   1306.    7.657  7.36E-07  1.25E-04  1.78E-07  3.04E-05  0.00E+00  0.00E+00  9.14E-07  1.56E-04  6.16E-03  0.10041
   1308.    7.645  9.44E-07  1.61E-04  4.88E-07  8.35E-05  0.00E+00  0.00E+00  1.43E-06  2.45E-04  6.16E-03  0.27661
   1310.    7.634  8.76E-07  1.50E-04  6.97E-07  1.20E-04  0.00E+00  0.00E+00  1.57E-06  2.70E-04  6.17E-03  0.39704
   1312.    7.622  1.07E-06  1.84E-04  3.28E-07  5.65E-05  0.00E+00  0.00E+00  1.40E-06  2.40E-04  6.17E-03  0.18763
   1314.    7.610  1.26E-06  2.17E-04  9.74E-08  1.68E-05  0.00E+00  0.00E+00  1.35E-06  2.34E-04  6.17E-03  0.05626
   1316.    7.599  1.26E-06  2.19E-04  9.10E-08  1.58E-05  0.00E+00  0.00E+00  1.36E-06  2.35E-04  6.18E-03  0.05277
   1318.    7.587  1.19E-06  2.07E-04  2.98E-08  5.18E-06  0.00E+00  0.00E+00  1.22E-06  2.12E-04  6.18E-03  0.01739
   1320.    7.576  1.15E-06  2.00E-04  7.59E-08  1.32E-05  0.00E+00  0.00E+00  1.22E-06  2.13E-04  6.18E-03  0.04486
   1322.    7.564  1.01E-06  1.77E-04  3.19E-07  5.57E-05  0.00E+00  0.00E+00  1.33E-06  2.32E-04  6.18E-03  0.18942
   1324.    7.553  7.70E-07  1.35E-04  7.40E-07  1.30E-04  0.00E+00  0.00E+00  1.51E-06  2.65E-04  6.19E-03  0.44190
   1326.    7.541  6.94E-07  1.22E-04  7.19E-07  1.26E-04  0.00E+00  0.00E+00  1.41E-06  2.48E-04  6.19E-03  0.43088
   1328.    7.530  8.35E-07  1.47E-04  5.19E-07  9.15E-05  0.00E+00  0.00E+00  1.35E-06  2.39E-04  6.19E-03  0.31364
   1330.    7.519  8.20E-07  1.45E-04  6.34E-07  1.12E-04  0.00E+00  0.00E+00  1.45E-06  2.57E-04  6.19E-03  0.38589
   1332.    7.508  7.51E-07  1.33E-04  4.78E-07  8.47E-05  0.00E+00  0.00E+00  1.23E-06  2.18E-04  6.20E-03  0.29218
   1334.    7.496  8.83E-07  1.57E-04  4.25E-07  7.56E-05  0.00E+00  0.00E+00  1.31E-06  2.33E-04  6.20E-03  0.26227
   1336.    7.485  9.92E-07  1.77E-04  2.35E-07  4.20E-05  0.00E+00  0.00E+00  1.23E-06  2.19E-04  6.20E-03  0.14533
   1338.    7.474  8.63E-07  1.54E-04  8.65E-09  1.55E-06  0.00E+00  0.00E+00  8.71E-07  1.56E-04  6.20E-03  0.00537
   1340.    7.463  8.54E-07  1.53E-04  5.85E-09  1.05E-06  0.00E+00  0.00E+00  8.59E-07  1.54E-04  6.21E-03  0.00371
   1342.    7.452  8.62E-07  1.55E-04  1.04E-07  1.88E-05  0.00E+00  0.00E+00  9.67E-07  1.74E-04  6.21E-03  0.06641
   1344.    7.440  8.17E-07  1.48E-04  4.22E-07  7.63E-05  0.00E+00  0.00E+00  1.24E-06  2.24E-04  6.21E-03  0.26962
   1346.    7.429  8.02E-07  1.45E-04  4.30E-07  7.78E-05  0.00E+00  0.00E+00  1.23E-06  2.23E-04  6.21E-03  0.27532
   1348.    7.418  8.86E-07  1.61E-04  1.70E-07  3.09E-05  0.00E+00  0.00E+00  1.06E-06  1.92E-04  6.21E-03  0.10975
   1350.    7.407  9.83E-07  1.79E-04  1.53E-07  2.79E-05  0.00E+00  0.00E+00  1.14E-06  2.07E-04  6.22E-03  0.09994
   1352.    7.396  9.16E-07  1.67E-04  2.56E-07  4.67E-05  0.00E+00  0.00E+00  1.17E-06  2.14E-04  6.22E-03  0.16747
   1354.    7.386  9.64E-07  1.77E-04  1.50E-07  2.74E-05  0.00E+00  0.00E+00  1.11E-06  2.04E-04  6.22E-03  0.09849
   1356.    7.375  9.31E-07  1.71E-04  1.59E-07  2.93E-05  0.00E+00  0.00E+00  1.09E-06  2.00E-04  6.22E-03  0.10586
   1358.    7.364  9.87E-07  1.82E-04  1.95E-07  3.60E-05  0.00E+00  0.00E+00  1.18E-06  2.18E-04  6.23E-03  0.13033
   1360.    7.353  9.78E-07  1.81E-04  9.01E-08  1.67E-05  0.00E+00  0.00E+00  1.07E-06  1.98E-04  6.23E-03  0.06047
   1362.    7.342  8.32E-07  1.54E-04  1.05E-08  1.95E-06  0.00E+00  0.00E+00  8.42E-07  1.56E-04  6.23E-03  0.00706
   1364.    7.331  8.99E-07  1.67E-04  4.07E-08  7.57E-06  0.00E+00  0.00E+00  9.39E-07  1.75E-04  6.23E-03  0.02790
   1366.    7.321  1.04E-06  1.94E-04  1.44E-07  2.69E-05  0.00E+00  0.00E+00  1.18E-06  2.21E-04  6.23E-03  0.09892
   1368.    7.310  9.77E-07  1.83E-04  9.00E-08  1.68E-05  0.00E+00  0.00E+00  1.07E-06  2.00E-04  6.24E-03  0.06201
   1370.    7.299  1.02E-06  1.91E-04  4.22E-08  7.92E-06  0.00E+00  0.00E+00  1.06E-06  1.99E-04  6.24E-03  0.02941
   1372.    7.289  9.75E-07  1.84E-04  3.10E-08  5.84E-06  0.00E+00  0.00E+00  1.01E-06  1.89E-04  6.24E-03  0.02166
   1374.    7.278  7.43E-07  1.40E-04  1.25E-09  2.36E-07  0.00E+00  0.00E+00  7.44E-07  1.40E-04  6.24E-03  0.00088
   1376.    7.267  8.47E-07  1.60E-04  1.21E-08  2.28E-06  0.00E+00  0.00E+00  8.59E-07  1.63E-04  6.24E-03  0.00860
   1378.    7.257  9.98E-07  1.90E-04  3.09E-08  5.87E-06  0.00E+00  0.00E+00  1.03E-06  1.95E-04  6.25E-03  0.02212
   1380.    7.246  9.89E-07  1.88E-04  1.03E-07  1.96E-05  0.00E+00  0.00E+00  1.09E-06  2.08E-04  6.25E-03  0.07436
   1382.    7.236  1.01E-06  1.94E-04  1.72E-07  3.28E-05  0.00E+00  0.00E+00  1.19E-06  2.26E-04  6.25E-03  0.12464
   1384.    7.225  1.03E-06  1.97E-04  1.16E-07  2.23E-05  0.00E+00  0.00E+00  1.15E-06  2.20E-04  6.25E-03  0.08486
   1386.    7.215  8.52E-07  1.64E-04  2.95E-08  5.67E-06  0.00E+00  0.00E+00  8.81E-07  1.69E-04  6.25E-03  0.02156
   1388.    7.205  7.58E-07  1.46E-04  2.10E-09  4.05E-07  0.00E+00  0.00E+00  7.60E-07  1.46E-04  6.26E-03  0.00156
   1390.    7.194  9.52E-07  1.84E-04  8.45E-09  1.63E-06  0.00E+00  0.00E+00  9.60E-07  1.86E-04  6.26E-03  0.00630
   1392.    7.184  9.26E-07  1.79E-04  6.75E-09  1.31E-06  0.00E+00  0.00E+00  9.33E-07  1.81E-04  6.26E-03  0.00505
   1394.    7.174  6.72E-07  1.31E-04  1.12E-09  2.18E-07  0.00E+00  0.00E+00  6.74E-07  1.31E-04  6.26E-03  0.00084
   1396.    7.163  6.63E-07  1.29E-04  1.07E-11  2.08E-09  0.00E+00  0.00E+00  6.63E-07  1.29E-04  6.26E-03  0.00001
   1398.    7.153  6.72E-07  1.31E-04  8.16E-11  1.60E-08  0.00E+00  0.00E+00  6.72E-07  1.31E-04  6.26E-03  0.00006
   1400.    7.143  7.24E-07  1.42E-04  2.57E-09  5.05E-07  0.00E+00  0.00E+00  7.26E-07  1.42E-04  6.27E-03  0.00200
  iv         1405
1                                             RADIANCE(WATTS/CM2-STER-XXX)
0  FREQ   WAVLEN    PATH THERMAL      SURFACE EMISSION    SURFACE REFLECTED     TOTAL RADIANCE   INTEGRAL    TOTAL
  (CM-1) (MICRN)    (CM-1)   (MICRN)    (CM-1)   (MICRN)    (CM-1)   (MICRN)    (CM-1)   (MICRN)    (CM-1)   TRANS

   1402.    7.133  9.26E-07  1.82E-04  8.11E-09  1.59E-06  0.00E+00  0.00E+00  9.34E-07  1.84E-04  6.27E-03  0.00630
   1404.    7.123  8.03E-07  1.58E-04  3.70E-09  7.29E-07  0.00E+00  0.00E+00  8.06E-07  1.59E-04  6.27E-03  0.00288
   1406.    7.112  8.59E-07  1.70E-04  2.19E-08  4.34E-06  0.00E+00  0.00E+00  8.81E-07  1.74E-04  6.27E-03  0.01736
   1408.    7.102  9.91E-07  1.96E-04  5.45E-08  1.08E-05  0.00E+00  0.00E+00  1.05E-06  2.07E-04  6.27E-03  0.04323
   1410.    7.092  9.25E-07  1.84E-04  3.00E-08  5.97E-06  0.00E+00  0.00E+00  9.55E-07  1.90E-04  6.27E-03  0.02389
   1412.    7.082  8.85E-07  1.77E-04  2.25E-08  4.49E-06  0.00E+00  0.00E+00  9.08E-07  1.81E-04  6.28E-03  0.01813
   1414.    7.072  9.11E-07  1.82E-04  2.36E-08  4.72E-06  0.00E+00  0.00E+00  9.34E-07  1.87E-04  6.28E-03  0.01906
   1416.    7.062  7.45E-07  1.49E-04  4.30E-09  8.61E-07  0.00E+00  0.00E+00  7.50E-07  1.50E-04  6.28E-03  0.00348
   1418.    7.052  5.32E-07  1.07E-04  1.63E-11  3.27E-09  0.00E+00  0.00E+00  5.32E-07  1.07E-04  6.28E-03  0.00001
   1420.    7.042  5.16E-07  1.04E-04  3.30E-12  6.66E-10  0.00E+00  0.00E+00  5.16E-07  1.04E-04  6.28E-03  0.00000
   1422.    7.032  6.60E-07  1.33E-04  9.98E-12  2.02E-09  0.00E+00  0.00E+00  6.60E-07  1.33E-04  6.28E-03  0.00001
   1424.    7.022  6.50E-07  1.32E-04  4.01E-10  8.13E-08  0.00E+00  0.00E+00  6.50E-07  1.32E-04  6.28E-03  0.00034
   1426.    7.013  7.95E-07  1.62E-04  2.36E-09  4.81E-07  0.00E+00  0.00E+00  7.98E-07  1.62E-04  6.29E-03  0.00200
   1428.    7.003  7.33E-07  1.49E-04  1.65E-09  3.36E-07  0.00E+00  0.00E+00  7.34E-07  1.50E-04  6.29E-03  0.00139
   1430.    6.993  6.10E-07  1.25E-04  1.08E-10  2.21E-08  0.00E+00  0.00E+00  6.10E-07  1.25E-04  6.29E-03  0.00009
   1432.    6.983  6.87E-07  1.41E-04  1.37E-10  2.80E-08  0.00E+00  0.00E+00  6.87E-07  1.41E-04  6.29E-03  0.00012
   1434.    6.974  6.43E-07  1.32E-04  5.86E-11  1.20E-08  0.00E+00  0.00E+00  6.43E-07  1.32E-04  6.29E-03  0.00005
   1436.    6.964  4.75E-07  9.79E-05  5.87E-13  1.21E-10  0.00E+00  0.00E+00  4.75E-07  9.79E-05  6.29E-03  0.00000
   1438.    6.954  5.61E-07  1.16E-04  1.56E-10  3.23E-08  0.00E+00  0.00E+00  5.61E-07  1.16E-04  6.29E-03  0.00014
   1440.    6.944  7.88E-07  1.63E-04  2.51E-09  5.20E-07  0.00E+00  0.00E+00  7.90E-07  1.64E-04  6.29E-03  0.00223
   1442.    6.935  8.52E-07  1.77E-04  7.96E-09  1.65E-06  0.00E+00  0.00E+00  8.60E-07  1.79E-04  6.30E-03  0.00711
   1444.    6.925  8.23E-07  1.72E-04  7.72E-09  1.61E-06  0.00E+00  0.00E+00  8.31E-07  1.73E-04  6.30E-03  0.00692
   1446.    6.916  6.53E-07  1.37E-04  1.79E-09  3.74E-07  0.00E+00  0.00E+00  6.55E-07  1.37E-04  6.30E-03  0.00161
   1448.    6.906  5.59E-07  1.17E-04  5.47E-11  1.15E-08  0.00E+00  0.00E+00  5.59E-07  1.17E-04  6.30E-03  0.00005
   1450.    6.897  6.65E-07  1.40E-04  1.36E-10  2.85E-08  0.00E+00  0.00E+00  6.65E-07  1.40E-04  6.30E-03  0.00012
   1452.    6.887  6.24E-07  1.32E-04  5.99E-11  1.26E-08  0.00E+00  0.00E+00  6.24E-07  1.32E-04  6.30E-03  0.00006
   1454.    6.878  5.21E-07  1.10E-04  1.99E-13  4.22E-11  0.00E+00  0.00E+00  5.21E-07  1.10E-04  6.30E-03  0.00000
   1456.    6.868  3.55E-07  7.52E-05  1.83E-16  3.87E-14  0.00E+00  0.00E+00  3.55E-07  7.52E-05  6.31E-03  0.00000
   1458.    6.859  3.24E-07  6.89E-05  1.17E-23  2.49E-21  0.00E+00  0.00E+00  3.24E-07  6.89E-05  6.31E-03  0.00000
   1460.    6.849  4.79E-07  1.02E-04  1.75E-13  3.73E-11  0.00E+00  0.00E+00  4.79E-07  1.02E-04  6.31E-03  0.00000
   1462.    6.840  5.75E-07  1.23E-04  4.55E-13  9.72E-11  0.00E+00  0.00E+00  5.75E-07  1.23E-04  6.31E-03  0.00000
   1464.    6.831  4.42E-07  9.46E-05  9.43E-13  2.02E-10  0.00E+00  0.00E+00  4.42E-07  9.46E-05  6.31E-03  0.00000
   1466.    6.821  4.71E-07  1.01E-04  1.48E-12  3.18E-10  0.00E+00  0.00E+00  4.71E-07  1.01E-04  6.31E-03  0.00000
   1468.    6.812  5.97E-07  1.29E-04  3.55E-12  7.64E-10  0.00E+00  0.00E+00  5.97E-07  1.29E-04  6.31E-03  0.00000
   1470.    6.803  5.25E-07  1.14E-04  2.27E-12  4.90E-10  0.00E+00  0.00E+00  5.25E-07  1.14E-04  6.31E-03  0.00000
   1472.    6.793  3.53E-07  7.65E-05  3.69E-15  7.99E-13  0.00E+00  0.00E+00  3.53E-07  7.65E-05  6.31E-03  0.00000
   1474.    6.784  3.37E-07  7.33E-05  6.68E-18  1.45E-15  0.00E+00  0.00E+00  3.37E-07  7.33E-05  6.31E-03  0.00000
   1476.    6.775  4.07E-07  8.87E-05  4.43E-13  9.65E-11  0.00E+00  0.00E+00  4.07E-07  8.87E-05  6.31E-03  0.00000
   1478.    6.766  5.58E-07  1.22E-04  2.83E-11  6.18E-09  0.00E+00  0.00E+00  5.58E-07  1.22E-04  6.32E-03  0.00003
   1480.    6.757  5.82E-07  1.28E-04  3.47E-11  7.61E-09  0.00E+00  0.00E+00  5.82E-07  1.28E-04  6.32E-03  0.00004
   1482.    6.748  5.58E-07  1.22E-04  3.93E-11  8.63E-09  0.00E+00  0.00E+00  5.58E-07  1.22E-04  6.32E-03  0.00004
   1484.    6.739  5.89E-07  1.30E-04  4.79E-11  1.05E-08  0.00E+00  0.00E+00  5.89E-07  1.30E-04  6.32E-03  0.00005
   1486.    6.729  4.53E-07  1.00E-04  6.63E-12  1.46E-09  0.00E+00  0.00E+00  4.53E-07  1.00E-04  6.32E-03  0.00001
   1488.    6.720  3.43E-07  7.59E-05  6.59E-15  1.46E-12  0.00E+00  0.00E+00  3.43E-07  7.59E-05  6.32E-03  0.00000
   1490.    6.711  3.29E-07  7.31E-05  5.04E-18  1.12E-15  0.00E+00  0.00E+00  3.29E-07  7.31E-05  6.32E-03  0.00000
   1492.    6.702  4.31E-07  9.59E-05  7.49E-15  1.67E-12  0.00E+00  0.00E+00  4.31E-07  9.59E-05  6.32E-03  0.00000
   1494.    6.693  4.60E-07  1.03E-04  9.07E-15  2.02E-12  0.00E+00  0.00E+00  4.60E-07  1.03E-04  6.32E-03  0.00000
   1496.    6.684  3.33E-07  7.46E-05  2.70E-15  6.05E-13  0.00E+00  0.00E+00  3.33E-07  7.46E-05  6.32E-03  0.00000
   1498.    6.676  2.98E-07  6.69E-05  7.64E-16  1.71E-13  0.00E+00  0.00E+00  2.98E-07  6.69E-05  6.32E-03  0.00000
   1500.    6.667  3.58E-07  8.06E-05  2.25E-18  5.07E-16  0.00E+00  0.00E+00  3.58E-07  8.06E-05  6.32E-03  0.00000
  iv         1505
1                                             RADIANCE(WATTS/CM2-STER-XXX)
0  FREQ   WAVLEN    PATH THERMAL      SURFACE EMISSION    SURFACE REFLECTED     TOTAL RADIANCE   INTEGRAL    TOTAL
  (CM-1) (MICRN)    (CM-1)   (MICRN)    (CM-1)   (MICRN)    (CM-1)   (MICRN)    (CM-1)   (MICRN)    (CM-1)   TRANS

   1502.    6.658  4.06E-07  9.17E-05  3.39E-18  7.65E-16  0.00E+00  0.00E+00  4.06E-07  9.17E-05  6.33E-03  0.00000
   1504.    6.649  3.46E-07  7.83E-05  1.39E-18  3.14E-16  0.00E+00  0.00E+00  3.46E-07  7.83E-05  6.33E-03  0.00000
   1506.    6.640  2.40E-07  5.44E-05  3.21E-28  7.28E-26  0.00E+00  0.00E+00  2.40E-07  5.44E-05  6.33E-03  0.00000
   1508.    6.631  2.37E-07  5.39E-05  7.33E-31  1.67E-28  0.00E+00  0.00E+00  2.37E-07  5.39E-05  6.33E-03  0.00000
   1510.    6.623  2.88E-07  6.57E-05  2.76E-20  6.28E-18  0.00E+00  0.00E+00  2.88E-07  6.57E-05  6.33E-03  0.00000
   1512.    6.614  3.35E-07  7.66E-05  8.28E-20  1.89E-17  0.00E+00  0.00E+00  3.35E-07  7.66E-05  6.33E-03  0.00000
   1514.    6.605  3.55E-07  8.13E-05  2.89E-20  6.62E-18  0.00E+00  0.00E+00  3.55E-07  8.13E-05  6.33E-03  0.00000
   1516.    6.596  2.88E-07  6.62E-05  9.54E-22  2.19E-19  0.00E+00  0.00E+00  2.88E-07  6.62E-05  6.33E-03  0.00000
   1518.    6.588  2.74E-07  6.32E-05  1.30E-27  3.00E-25  0.00E+00  0.00E+00  2.74E-07  6.32E-05  6.33E-03  0.00000
   1520.    6.579  2.56E-07  5.92E-05  3.43E-28  7.93E-26  0.00E+00  0.00E+00  2.56E-07  5.92E-05  6.33E-03  0.00000
   1522.    6.570  2.28E-07  5.28E-05  1.01E-28  2.34E-26  0.00E+00  0.00E+00  2.28E-07  5.28E-05  6.33E-03  0.00000
   1524.    6.562  2.57E-07  5.97E-05  1.66E-21  3.86E-19  0.00E+00  0.00E+00  2.57E-07  5.97E-05  6.33E-03  0.00000
   1526.    6.553  2.82E-07  6.58E-05  3.45E-21  8.03E-19  0.00E+00  0.00E+00  2.82E-07  6.58E-05  6.33E-03  0.00000
   1528.    6.545  3.12E-07  7.28E-05  2.99E-18  6.99E-16  0.00E+00  0.00E+00  3.12E-07  7.28E-05  6.33E-03  0.00000
   1530.    6.536  3.51E-07  8.22E-05  7.14E-18  1.67E-15  0.00E+00  0.00E+00  3.51E-07  8.22E-05  6.33E-03  0.00000
   1532.    6.527  2.97E-07  6.98E-05  2.07E-18  4.86E-16  0.00E+00  0.00E+00  2.97E-07  6.98E-05  6.33E-03  0.00000
   1534.    6.519  2.54E-07  5.98E-05  2.51E-24  5.91E-22  0.00E+00  0.00E+00  2.54E-07  5.98E-05  6.33E-03  0.00000
   1536.    6.510  3.00E-07  7.07E-05  7.49E-24  1.77E-21  0.00E+00  0.00E+00  3.00E-07  7.07E-05  6.34E-03  0.00000
   1538.    6.502  2.39E-07  5.65E-05  2.50E-24  5.90E-22  0.00E+00  0.00E+00  2.39E-07  5.65E-05  6.34E-03  0.00000
   1540.    6.494  1.85E-07  4.40E-05  2.84E-37  6.73E-35  0.00E+00  0.00E+00  1.85E-07  4.40E-05  6.34E-03  0.00000
   1542.    6.485  1.99E-07  4.72E-05  8.52E-37  2.03E-34  0.00E+00  0.00E+00  1.99E-07  4.72E-05  6.34E-03  0.00000
   1544.    6.477  2.34E-07  5.58E-05  5.40E-24  1.29E-21  0.00E+00  0.00E+00  2.34E-07  5.58E-05  6.34E-03  0.00000
   1546.    6.468  2.91E-07  6.95E-05  9.70E-18  2.32E-15  0.00E+00  0.00E+00  2.91E-07  6.95E-05  6.34E-03  0.00000
   1548.    6.460  3.40E-07  8.15E-05  2.84E-17  6.81E-15  0.00E+00  0.00E+00  3.40E-07  8.15E-05  6.34E-03  0.00000
   1550.    6.452  3.06E-07  7.34E-05  9.56E-18  2.30E-15  0.00E+00  0.00E+00  3.06E-07  7.34E-05  6.34E-03  0.00000
   1552.    6.443  2.98E-07  7.17E-05  1.29E-19  3.11E-17  0.00E+00  0.00E+00  2.98E-07  7.17E-05  6.34E-03  0.00000
   1554.    6.435  2.48E-07  6.00E-05  7.95E-20  1.92E-17  0.00E+00  0.00E+00  2.48E-07  6.00E-05  6.34E-03  0.00000
   1556.    6.427  2.18E-07  5.27E-05  2.31E-20  5.60E-18  0.00E+00  0.00E+00  2.18E-07  5.27E-05  6.34E-03  0.00000
   1558.    6.418  1.77E-07  4.31E-05  8.65E-39  2.10E-36  0.00E+00  0.00E+00  1.77E-07  4.31E-05  6.34E-03  0.00000
   1560.    6.410  1.80E-07  4.39E-05  3.13E-33  7.62E-31  0.00E+00  0.00E+00  1.80E-07  4.39E-05  6.34E-03  0.00000
   1562.    6.402  2.52E-07  6.14E-05  3.17E-23  7.74E-21  0.00E+00  0.00E+00  2.52E-07  6.14E-05  6.34E-03  0.00000
   1564.    6.394  2.68E-07  6.54E-05  3.17E-18  7.76E-16  0.00E+00  0.00E+00  2.68E-07  6.54E-05  6.34E-03  0.00000
   1566.    6.386  2.87E-07  7.03E-05  5.29E-18  1.30E-15  0.00E+00  0.00E+00  2.87E-07  7.03E-05  6.34E-03  0.00000
   1568.    6.378  2.62E-07  6.45E-05  2.71E-18  6.67E-16  0.00E+00  0.00E+00  2.62E-07  6.45E-05  6.34E-03  0.00000
   1570.    6.369  2.26E-07  5.57E-05  2.21E-18  5.44E-16  0.00E+00  0.00E+00  2.26E-07  5.57E-05  6.34E-03  0.00000
   1572.    6.361  2.94E-07  7.27E-05  2.20E-18  5.44E-16  0.00E+00  0.00E+00  2.94E-07  7.27E-05  6.34E-03  0.00000
   1574.    6.353  2.71E-07  6.72E-05  2.84E-14  7.04E-12  0.00E+00  0.00E+00  2.71E-07  6.72E-05  6.34E-03  0.00000
   1576.    6.345  1.94E-07  4.81E-05  8.52E-14  2.12E-11  0.00E+00  0.00E+00  1.94E-07  4.81E-05  6.35E-03  0.00000
   1578.    6.337  2.44E-07  6.07E-05  3.67E-14  9.15E-12  0.00E+00  0.00E+00  2.44E-07  6.07E-05  6.35E-03  0.00000
   1580.    6.329  3.53E-07  8.82E-05  2.31E-12  5.77E-10  0.00E+00  0.00E+00  3.53E-07  8.82E-05  6.35E-03  0.00000
   1582.    6.321  4.02E-07  1.01E-04  4.35E-11  1.09E-08  0.00E+00  0.00E+00  4.02E-07  1.01E-04  6.35E-03  0.00006
   1584.    6.313  4.32E-07  1.08E-04  2.75E-10  6.89E-08  0.00E+00  0.00E+00  4.32E-07  1.08E-04  6.35E-03  0.00041
   1586.    6.305  4.47E-07  1.12E-04  6.49E-10  1.63E-07  0.00E+00  0.00E+00  4.48E-07  1.13E-04  6.35E-03  0.00097
   1588.    6.297  4.33E-07  1.09E-04  6.84E-10  1.73E-07  0.00E+00  0.00E+00  4.33E-07  1.09E-04  6.35E-03  0.00103
   1590.    6.289  3.86E-07  9.77E-05  2.46E-10  6.21E-08  0.00E+00  0.00E+00  3.87E-07  9.77E-05  6.35E-03  0.00037
   1592.    6.281  3.68E-07  9.32E-05  1.20E-10  3.03E-08  0.00E+00  0.00E+00  3.68E-07  9.32E-05  6.35E-03  0.00018
   1594.    6.274  3.36E-07  8.54E-05  6.94E-11  1.76E-08  0.00E+00  0.00E+00  3.36E-07  8.54E-05  6.35E-03  0.00011
   1596.    6.266  3.50E-07  8.93E-05  2.53E-10  6.44E-08  0.00E+00  0.00E+00  3.51E-07  8.93E-05  6.35E-03  0.00040
   1598.    6.258  4.20E-07  1.07E-04  1.30E-09  3.32E-07  0.00E+00  0.00E+00  4.21E-07  1.08E-04  6.35E-03  0.00204
   1600.    6.250  3.98E-07  1.02E-04  1.10E-09  2.81E-07  0.00E+00  0.00E+00  3.99E-07  1.02E-04  6.35E-03  0.00173
  iv         1605
1                                             RADIANCE(WATTS/CM2-STER-XXX)
0  FREQ   WAVLEN    PATH THERMAL      SURFACE EMISSION    SURFACE REFLECTED     TOTAL RADIANCE   INTEGRAL    TOTAL
  (CM-1) (MICRN)    (CM-1)   (MICRN)    (CM-1)   (MICRN)    (CM-1)   (MICRN)    (CM-1)   (MICRN)    (CM-1)   TRANS

   1602.    6.242  3.31E-07  8.50E-05  1.38E-10  3.54E-08  0.00E+00  0.00E+00  3.31E-07  8.50E-05  6.36E-03  0.00022
   1604.    6.234  3.54E-07  9.10E-05  1.53E-10  3.93E-08  0.00E+00  0.00E+00  3.54E-07  9.11E-05  6.36E-03  0.00025
   1606.    6.227  3.53E-07  9.10E-05  1.73E-10  4.46E-08  0.00E+00  0.00E+00  3.53E-07  9.10E-05  6.36E-03  0.00028
   1608.    6.219  2.87E-07  7.43E-05  1.14E-11  2.96E-09  0.00E+00  0.00E+00  2.87E-07  7.43E-05  6.36E-03  0.00002
   1610.    6.211  3.01E-07  7.80E-05  5.39E-12  1.40E-09  0.00E+00  0.00E+00  3.01E-07  7.80E-05  6.36E-03  0.00001
   1612.    6.203  3.35E-07  8.71E-05  6.63E-12  1.72E-09  0.00E+00  0.00E+00  3.35E-07  8.71E-05  6.36E-03  0.00001
   1614.    6.196  2.76E-07  7.19E-05  7.76E-13  2.02E-10  0.00E+00  0.00E+00  2.76E-07  7.19E-05  6.36E-03  0.00000
   1616.    6.188  1.78E-07  4.66E-05  3.22E-13  8.42E-11  0.00E+00  0.00E+00  1.78E-07  4.66E-05  6.36E-03  0.00000
   1618.    6.180  1.94E-07  5.08E-05  3.22E-13  8.44E-11  0.00E+00  0.00E+00  1.94E-07  5.08E-05  6.36E-03  0.00000
   1620.    6.173  2.59E-07  6.79E-05  1.42E-16  3.73E-14  0.00E+00  0.00E+00  2.59E-07  6.79E-05  6.36E-03  0.00000
   1622.    6.165  2.22E-07  5.84E-05  1.01E-15  2.65E-13  0.00E+00  0.00E+00  2.22E-07  5.84E-05  6.36E-03  0.00000
   1624.    6.158  1.88E-07  4.96E-05  2.68E-15  7.08E-13  0.00E+00  0.00E+00  1.88E-07  4.96E-05  6.36E-03  0.00000
   1626.    6.150  2.14E-07  5.66E-05  3.18E-15  8.42E-13  0.00E+00  0.00E+00  2.14E-07  5.66E-05  6.36E-03  0.00000
   1628.    6.143  2.12E-07  5.61E-05  1.43E-14  3.80E-12  0.00E+00  0.00E+00  2.12E-07  5.61E-05  6.36E-03  0.00000
   1630.    6.135  2.72E-07  7.24E-05  4.99E-14  1.33E-11  0.00E+00  0.00E+00  2.72E-07  7.24E-05  6.36E-03  0.00000
   1632.    6.127  2.69E-07  7.16E-05  3.32E-14  8.84E-12  0.00E+00  0.00E+00  2.69E-07  7.16E-05  6.36E-03  0.00000
   1634.    6.120  1.81E-07  4.83E-05  2.79E-16  7.45E-14  0.00E+00  0.00E+00  1.81E-07  4.83E-05  6.36E-03  0.00000
   1636.    6.112  1.37E-07  3.65E-05  8.33E-25  2.23E-22  0.00E+00  0.00E+00  1.37E-07  3.65E-05  6.36E-03  0.00000
   1638.    6.105  1.74E-07  4.67E-05  5.50E-18  1.48E-15  0.00E+00  0.00E+00  1.74E-07  4.67E-05  6.36E-03  0.00000
   1640.    6.098  2.27E-07  6.10E-05  1.55E-16  4.17E-14  0.00E+00  0.00E+00  2.27E-07  6.10E-05  6.36E-03  0.00000
   1642.    6.090  2.43E-07  6.56E-05  2.32E-16  6.26E-14  0.00E+00  0.00E+00  2.43E-07  6.56E-05  6.36E-03  0.00000
   1644.    6.083  2.02E-07  5.46E-05  4.62E-17  1.25E-14  0.00E+00  0.00E+00  2.02E-07  5.46E-05  6.37E-03  0.00000
   1646.    6.075  1.37E-07  3.72E-05  1.68E-23  4.54E-21  0.00E+00  0.00E+00  1.37E-07  3.72E-05  6.37E-03  0.00000
   1648.    6.068  1.42E-07  3.86E-05  4.55E-24  1.24E-21  0.00E+00  0.00E+00  1.42E-07  3.86E-05  6.37E-03  0.00000
   1650.    6.061  1.60E-07  4.37E-05  2.23E-32  6.07E-30  0.00E+00  0.00E+00  1.60E-07  4.37E-05  6.37E-03  0.00000
   1652.    6.053  1.25E-07  3.40E-05  7.43E-33  2.03E-30  0.00E+00  0.00E+00  1.25E-07  3.40E-05  6.37E-03  0.00000
   1654.    6.046  1.17E-07  3.21E-05  1.02E-33  2.79E-31  0.00E+00  0.00E+00  1.17E-07  3.21E-05  6.37E-03  0.00000
   1656.    6.039  1.75E-07  4.79E-05  1.17E-17  3.21E-15  0.00E+00  0.00E+00  1.75E-07  4.79E-05  6.37E-03  0.00000
   1658.    6.031  2.37E-07  6.51E-05  6.68E-16  1.84E-13  0.00E+00  0.00E+00  2.37E-07  6.51E-05  6.37E-03  0.00000
   1660.    6.024  2.33E-07  6.41E-05  9.56E-16  2.63E-13  0.00E+00  0.00E+00  2.33E-07  6.41E-05  6.37E-03  0.00000
   1662.    6.017  1.70E-07  4.70E-05  8.31E-16  2.30E-13  0.00E+00  0.00E+00  1.70E-07  4.70E-05  6.37E-03  0.00000
   1664.    6.010  1.92E-07  5.33E-05  9.05E-16  2.51E-13  0.00E+00  0.00E+00  1.92E-07  5.33E-05  6.37E-03  0.00000
   1666.    6.002  2.29E-07  6.34E-05  5.31E-16  1.47E-13  0.00E+00  0.00E+00  2.29E-07  6.34E-05  6.37E-03  0.00000
   1668.    5.995  1.65E-07  4.60E-05  1.51E-16  4.20E-14  0.00E+00  0.00E+00  1.65E-07  4.60E-05  6.37E-03  0.00000
   1670.    5.988  1.26E-07  3.51E-05  5.30E-24  1.48E-21  0.00E+00  0.00E+00  1.26E-07  3.51E-05  6.37E-03  0.00000
   1672.    5.981  1.53E-07  4.27E-05  1.01E-22  2.84E-20  0.00E+00  0.00E+00  1.53E-07  4.27E-05  6.37E-03  0.00000
   1674.    5.974  1.58E-07  4.44E-05  1.01E-22  2.84E-20  0.00E+00  0.00E+00  1.58E-07  4.44E-05  6.37E-03  0.00000
   1676.    5.967  1.48E-07  4.16E-05  8.64E-19  2.43E-16  0.00E+00  0.00E+00  1.48E-07  4.16E-05  6.37E-03  0.00000
   1678.    5.959  1.86E-07  5.23E-05  2.59E-18  7.30E-16  0.00E+00  0.00E+00  1.86E-07  5.23E-05  6.37E-03  0.00000
   1680.    5.952  1.74E-07  4.90E-05  8.68E-19  2.45E-16  0.00E+00  0.00E+00  1.74E-07  4.90E-05  6.37E-03  0.00000
   1682.    5.945  1.47E-07  4.16E-05  1.45E-21  4.11E-19  0.00E+00  0.00E+00  1.47E-07  4.16E-05  6.37E-03  0.00000
   1684.    5.938  1.09E-07  3.08E-05  1.70E-23  4.83E-21  0.00E+00  0.00E+00  1.09E-07  3.08E-05  6.37E-03  0.00000
   1686.    5.931  1.33E-07  3.78E-05  2.30E-22  6.53E-20  0.00E+00  0.00E+00  1.33E-07  3.78E-05  6.37E-03  0.00000
   1688.    5.924  1.61E-07  4.58E-05  5.44E-19  1.55E-16  0.00E+00  0.00E+00  1.61E-07  4.58E-05  6.37E-03  0.00000
   1690.    5.917  1.69E-07  4.81E-05  2.78E-18  7.95E-16  0.00E+00  0.00E+00  1.69E-07  4.81E-05  6.37E-03  0.00000
   1692.    5.910  1.86E-07  5.32E-05  4.01E-18  1.15E-15  0.00E+00  0.00E+00  1.86E-07  5.32E-05  6.37E-03  0.00000
   1694.    5.903  1.49E-07  4.29E-05  1.16E-18  3.34E-16  0.00E+00  0.00E+00  1.49E-07  4.29E-05  6.37E-03  0.00000
   1696.    5.896  1.10E-07  3.18E-05  9.52E-34  2.74E-31  0.00E+00  0.00E+00  1.10E-07  3.18E-05  6.37E-03  0.00000
   1698.    5.889  1.11E-07  3.19E-05  1.26E-39  3.63E-37  0.00E+00  0.00E+00  1.11E-07  3.19E-05  6.37E-03  0.00000
   1700.    5.882  9.68E-08  2.80E-05  4.17E-40  1.20E-37  0.00E+00  0.00E+00  9.68E-08  2.80E-05  6.37E-03  0.00000
  iv         1705
1                                             RADIANCE(WATTS/CM2-STER-XXX)
0  FREQ   WAVLEN    PATH THERMAL      SURFACE EMISSION    SURFACE REFLECTED     TOTAL RADIANCE   INTEGRAL    TOTAL
  (CM-1) (MICRN)    (CM-1)   (MICRN)    (CM-1)   (MICRN)    (CM-1)   (MICRN)    (CM-1)   (MICRN)    (CM-1)   TRANS

   1702.    5.875  1.20E-07  3.49E-05  1.73E-21  5.01E-19  0.00E+00  0.00E+00  1.20E-07  3.49E-05  6.37E-03  0.00000
   1704.    5.869  1.27E-07  3.69E-05  2.30E-20  6.68E-18  0.00E+00  0.00E+00  1.27E-07  3.69E-05  6.37E-03  0.00000
   1706.    5.862  1.22E-07  3.56E-05  2.94E-19  8.55E-17  0.00E+00  0.00E+00  1.22E-07  3.56E-05  6.37E-03  0.00000
   1708.    5.855  1.66E-07  4.83E-05  1.94E-15  5.67E-13  0.00E+00  0.00E+00  1.66E-07  4.83E-05  6.38E-03  0.00000
   1710.    5.848  1.83E-07  5.36E-05  2.86E-15  8.35E-13  0.00E+00  0.00E+00  1.83E-07  5.36E-05  6.38E-03  0.00000
   1712.    5.841  1.85E-07  5.42E-05  2.62E-15  7.68E-13  0.00E+00  0.00E+00  1.85E-07  5.42E-05  6.38E-03  0.00000
   1714.    5.834  1.43E-07  4.20E-05  8.76E-16  2.57E-13  0.00E+00  0.00E+00  1.43E-07  4.20E-05  6.38E-03  0.00000
   1716.    5.828  1.07E-07  3.15E-05  7.69E-21  2.27E-18  0.00E+00  0.00E+00  1.07E-07  3.15E-05  6.38E-03  0.00000
   1718.    5.821  1.03E-07  3.04E-05  7.69E-21  2.27E-18  0.00E+00  0.00E+00  1.03E-07  3.04E-05  6.38E-03  0.00000
   1720.    5.814  1.57E-07  4.63E-05  1.46E-14  4.32E-12  0.00E+00  0.00E+00  1.57E-07  4.63E-05  6.38E-03  0.00000
   1722.    5.807  1.93E-07  5.74E-05  5.41E-14  1.60E-11  0.00E+00  0.00E+00  1.93E-07  5.74E-05  6.38E-03  0.00000
   1724.    5.800  2.10E-07  6.23E-05  1.00E-11  2.97E-09  0.00E+00  0.00E+00  2.10E-07  6.23E-05  6.38E-03  0.00003
   1726.    5.794  2.29E-07  6.82E-05  1.69E-11  5.02E-09  0.00E+00  0.00E+00  2.29E-07  6.82E-05  6.38E-03  0.00004
   1728.    5.787  2.09E-07  6.23E-05  6.62E-12  1.98E-09  0.00E+00  0.00E+00  2.09E-07  6.23E-05  6.38E-03  0.00002
   1730.    5.780  1.56E-07  4.68E-05  1.00E-12  3.01E-10  0.00E+00  0.00E+00  1.56E-07  4.68E-05  6.38E-03  0.00000
   1732.    5.774  1.22E-07  3.66E-05  2.37E-19  7.10E-17  0.00E+00  0.00E+00  1.22E-07  3.66E-05  6.38E-03  0.00000
   1734.    5.767  9.51E-08  2.86E-05  1.56E-25  4.69E-23  0.00E+00  0.00E+00  9.51E-08  2.86E-05  6.38E-03  0.00000
   1736.    5.760  1.26E-07  3.79E-05  1.13E-19  3.42E-17  0.00E+00  0.00E+00  1.26E-07  3.79E-05  6.38E-03  0.00000
   1738.    5.754  1.30E-07  3.93E-05  9.38E-15  2.83E-12  0.00E+00  0.00E+00  1.30E-07  3.93E-05  6.38E-03  0.00000
   1740.    5.747  1.18E-07  3.56E-05  2.84E-14  8.59E-12  0.00E+00  0.00E+00  1.18E-07  3.56E-05  6.38E-03  0.00000
   1742.    5.741  1.43E-07  4.35E-05  1.01E-14  3.05E-12  0.00E+00  0.00E+00  1.43E-07  4.35E-05  6.38E-03  0.00000
   1744.    5.734  1.38E-07  4.20E-05  1.07E-15  3.25E-13  0.00E+00  0.00E+00  1.38E-07  4.20E-05  6.38E-03  0.00000
   1746.    5.727  1.36E-07  4.13E-05  1.64E-15  5.01E-13  0.00E+00  0.00E+00  1.36E-07  4.13E-05  6.38E-03  0.00000
   1748.    5.721  1.16E-07  3.54E-05  4.82E-16  1.47E-13  0.00E+00  0.00E+00  1.16E-07  3.54E-05  6.38E-03  0.00000
   1750.    5.714  1.16E-07  3.55E-05  7.96E-17  2.44E-14  0.00E+00  0.00E+00  1.16E-07  3.55E-05  6.38E-03  0.00000
   1752.    5.708  1.48E-07  4.54E-05  3.99E-12  1.23E-09  0.00E+00  0.00E+00  1.48E-07  4.54E-05  6.38E-03  0.00001
   1754.    5.701  1.96E-07  6.02E-05  1.85E-11  5.70E-09  0.00E+00  0.00E+00  1.96E-07  6.02E-05  6.38E-03  0.00005
   1756.    5.695  1.70E-07  5.24E-05  1.14E-11  3.52E-09  0.00E+00  0.00E+00  1.70E-07  5.24E-05  6.38E-03  0.00003
   1758.    5.688  1.67E-07  5.16E-05  1.40E-12  4.34E-10  0.00E+00  0.00E+00  1.67E-07  5.16E-05  6.38E-03  0.00000
   1760.    5.682  1.62E-07  5.03E-05  1.69E-12  5.22E-10  0.00E+00  0.00E+00  1.62E-07  5.03E-05  6.38E-03  0.00000
   1762.    5.675  1.34E-07  4.14E-05  3.67E-12  1.14E-09  0.00E+00  0.00E+00  1.34E-07  4.15E-05  6.38E-03  0.00001
   1764.    5.669  1.84E-07  5.72E-05  4.82E-11  1.50E-08  0.00E+00  0.00E+00  1.84E-07  5.72E-05  6.38E-03  0.00014
   1766.    5.663  1.99E-07  6.20E-05  8.94E-11  2.79E-08  0.00E+00  0.00E+00  1.99E-07  6.21E-05  6.38E-03  0.00026
   1768.    5.656  1.49E-07  4.66E-05  2.21E-11  6.91E-09  0.00E+00  0.00E+00  1.49E-07  4.66E-05  6.38E-03  0.00007
   1770.    5.650  1.17E-07  3.68E-05  3.93E-18  1.23E-15  0.00E+00  0.00E+00  1.17E-07  3.68E-05  6.38E-03  0.00000
   1772.    5.643  8.66E-08  2.72E-05  5.09E-15  1.60E-12  0.00E+00  0.00E+00  8.66E-08  2.72E-05  6.38E-03  0.00000
   1774.    5.637  1.10E-07  3.46E-05  3.09E-14  9.73E-12  0.00E+00  0.00E+00  1.10E-07  3.46E-05  6.38E-03  0.00000
   1776.    5.631  1.53E-07  4.82E-05  1.51E-11  4.76E-09  0.00E+00  0.00E+00  1.53E-07  4.82E-05  6.39E-03  0.00005
   1778.    5.624  1.76E-07  5.56E-05  3.76E-11  1.19E-08  0.00E+00  0.00E+00  1.76E-07  5.56E-05  6.39E-03  0.00012
   1780.    5.618  1.43E-07  4.53E-05  1.26E-11  3.98E-09  0.00E+00  0.00E+00  1.43E-07  4.53E-05  6.39E-03  0.00004
   1782.    5.612  1.59E-07  5.06E-05  1.00E-10  3.18E-08  0.00E+00  0.00E+00  1.59E-07  5.06E-05  6.39E-03  0.00032
   1784.    5.605  1.74E-07  5.55E-05  2.89E-10  9.19E-08  0.00E+00  0.00E+00  1.75E-07  5.56E-05  6.39E-03  0.00092
   1786.    5.599  1.97E-07  6.27E-05  1.60E-09  5.10E-07  0.00E+00  0.00E+00  1.98E-07  6.33E-05  6.39E-03  0.00514
   1788.    5.593  2.07E-07  6.63E-05  1.45E-09  4.63E-07  0.00E+00  0.00E+00  2.09E-07  6.67E-05  6.39E-03  0.00466
   1790.    5.587  1.48E-07  4.73E-05  1.36E-10  4.34E-08  0.00E+00  0.00E+00  1.48E-07  4.74E-05  6.39E-03  0.00044
   1792.    5.580  9.56E-08  3.07E-05  1.31E-12  4.19E-10  0.00E+00  0.00E+00  9.56E-08  3.07E-05  6.39E-03  0.00000
   1794.    5.574  1.12E-07  3.62E-05  1.33E-12  4.29E-10  0.00E+00  0.00E+00  1.12E-07  3.62E-05  6.39E-03  0.00000
   1796.    5.568  1.41E-07  4.56E-05  1.60E-11  5.16E-09  0.00E+00  0.00E+00  1.41E-07  4.56E-05  6.39E-03  0.00005
   1798.    5.562  1.50E-07  4.85E-05  4.86E-11  1.57E-08  0.00E+00  0.00E+00  1.50E-07  4.85E-05  6.39E-03  0.00016
   1800.    5.556  1.19E-07  3.84E-05  2.70E-11  8.74E-09  0.00E+00  0.00E+00  1.19E-07  3.84E-05  6.39E-03  0.00009
  iv         1805
1                                             RADIANCE(WATTS/CM2-STER-XXX)
0  FREQ   WAVLEN    PATH THERMAL      SURFACE EMISSION    SURFACE REFLECTED     TOTAL RADIANCE   INTEGRAL    TOTAL
  (CM-1) (MICRN)    (CM-1)   (MICRN)    (CM-1)   (MICRN)    (CM-1)   (MICRN)    (CM-1)   (MICRN)    (CM-1)   TRANS

   1802.    5.549  1.46E-07  4.73E-05  1.03E-09  3.35E-07  0.00E+00  0.00E+00  1.47E-07  4.76E-05  6.39E-03  0.00355
   1804.    5.543  1.93E-07  6.28E-05  4.44E-09  1.44E-06  0.00E+00  0.00E+00  1.97E-07  6.43E-05  6.39E-03  0.01528
   1806.    5.537  2.02E-07  6.59E-05  4.57E-09  1.49E-06  0.00E+00  0.00E+00  2.07E-07  6.74E-05  6.39E-03  0.01581
   1808.    5.531  1.85E-07  6.06E-05  2.01E-09  6.56E-07  0.00E+00  0.00E+00  1.87E-07  6.12E-05  6.39E-03  0.00699
   1810.    5.525  1.44E-07  4.73E-05  5.47E-10  1.79E-07  0.00E+00  0.00E+00  1.45E-07  4.75E-05  6.39E-03  0.00192
   1812.    5.519  1.53E-07  5.02E-05  3.57E-09  1.17E-06  0.00E+00  0.00E+00  1.57E-07  5.14E-05  6.39E-03  0.01275
   1814.    5.513  2.01E-07  6.61E-05  2.19E-08  7.20E-06  0.00E+00  0.00E+00  2.23E-07  7.33E-05  6.39E-03  0.07842
   1816.    5.507  1.99E-07  6.57E-05  2.63E-08  8.68E-06  0.00E+00  0.00E+00  2.26E-07  7.44E-05  6.39E-03  0.09466
   1818.    5.501  1.96E-07  6.49E-05  3.04E-08  1.01E-05  0.00E+00  0.00E+00  2.27E-07  7.49E-05  6.39E-03  0.11057
   1820.    5.495  1.99E-07  6.60E-05  3.30E-08  1.09E-05  0.00E+00  0.00E+00  2.32E-07  7.70E-05  6.39E-03  0.12056
   1822.    5.488  1.89E-07  6.26E-05  1.02E-08  3.39E-06  0.00E+00  0.00E+00  1.99E-07  6.60E-05  6.39E-03  0.03747
   1824.    5.482  1.42E-07  4.73E-05  7.20E-10  2.40E-07  0.00E+00  0.00E+00  1.43E-07  4.75E-05  6.39E-03  0.00266
   1826.    5.476  1.26E-07  4.20E-05  1.99E-11  6.65E-09  0.00E+00  0.00E+00  1.26E-07  4.20E-05  6.39E-03  0.00007
   1828.    5.470  1.26E-07  4.22E-05  1.89E-11  6.32E-09  0.00E+00  0.00E+00  1.26E-07  4.22E-05  6.39E-03  0.00007
   1830.    5.464  9.37E-08  3.14E-05  6.85E-12  2.29E-09  0.00E+00  0.00E+00  9.37E-08  3.14E-05  6.39E-03  0.00003
   1832.    5.459  1.44E-07  4.83E-05  1.52E-09  5.10E-07  0.00E+00  0.00E+00  1.45E-07  4.88E-05  6.39E-03  0.00586
   1834.    5.453  1.84E-07  6.20E-05  5.39E-09  1.81E-06  0.00E+00  0.00E+00  1.90E-07  6.38E-05  6.39E-03  0.02086
   1836.    5.447  1.65E-07  5.57E-05  3.71E-09  1.25E-06  0.00E+00  0.00E+00  1.69E-07  5.70E-05  6.40E-03  0.01439
   1838.    5.441  1.64E-07  5.53E-05  4.02E-09  1.36E-06  0.00E+00  0.00E+00  1.68E-07  5.67E-05  6.40E-03  0.01583
   1840.    5.435  1.83E-07  6.20E-05  7.56E-09  2.56E-06  0.00E+00  0.00E+00  1.91E-07  6.46E-05  6.40E-03  0.02989
   1842.    5.429  1.39E-07  4.73E-05  2.57E-09  8.72E-07  0.00E+00  0.00E+00  1.42E-07  4.82E-05  6.40E-03  0.01019
   1844.    5.423  8.58E-08  2.92E-05  2.89E-12  9.83E-10  0.00E+00  0.00E+00  8.58E-08  2.92E-05  6.40E-03  0.00001
   1846.    5.417  1.06E-07  3.62E-05  1.16E-11  3.96E-09  0.00E+00  0.00E+00  1.06E-07  3.62E-05  6.40E-03  0.00005
   1848.    5.411  1.42E-07  4.85E-05  4.64E-09  1.58E-06  0.00E+00  0.00E+00  1.47E-07  5.01E-05  6.40E-03  0.01908
   1850.    5.405  1.67E-07  5.71E-05  2.70E-08  9.24E-06  0.00E+00  0.00E+00  1.94E-07  6.63E-05  6.40E-03  0.11144
   1852.    5.400  1.62E-07  5.55E-05  4.65E-08  1.60E-05  0.00E+00  0.00E+00  2.08E-07  7.14E-05  6.40E-03  0.19320
   1854.    5.394  1.48E-07  5.10E-05  6.58E-08  2.26E-05  0.00E+00  0.00E+00  2.14E-07  7.36E-05  6.40E-03  0.27562
   1856.    5.388  1.46E-07  5.03E-05  6.68E-08  2.30E-05  0.00E+00  0.00E+00  2.13E-07  7.34E-05  6.40E-03  0.28169
   1858.    5.382  1.58E-07  5.44E-05  3.70E-08  1.28E-05  0.00E+00  0.00E+00  1.95E-07  6.72E-05  6.40E-03  0.15702
   1860.    5.376  1.59E-07  5.50E-05  2.81E-08  9.72E-06  0.00E+00  0.00E+00  1.87E-07  6.47E-05  6.40E-03  0.12051
   1862.    5.371  1.58E-07  5.47E-05  3.92E-08  1.36E-05  0.00E+00  0.00E+00  1.97E-07  6.83E-05  6.40E-03  0.16940
   1864.    5.365  1.57E-07  5.47E-05  2.53E-08  8.79E-06  0.00E+00  0.00E+00  1.83E-07  6.34E-05  6.40E-03  0.10985
   1866.    5.359  1.19E-07  4.15E-05  4.06E-09  1.41E-06  0.00E+00  0.00E+00  1.23E-07  4.29E-05  6.40E-03  0.01769
   1868.    5.353  7.69E-08  2.68E-05  6.26E-12  2.18E-09  0.00E+00  0.00E+00  7.69E-08  2.68E-05  6.40E-03  0.00003
   1870.    5.348  9.69E-08  3.39E-05  1.76E-09  6.15E-07  0.00E+00  0.00E+00  9.86E-08  3.45E-05  6.40E-03  0.00790
   1872.    5.342  1.44E-07  5.06E-05  2.37E-08  8.32E-06  0.00E+00  0.00E+00  1.68E-07  5.89E-05  6.40E-03  0.10712
   1874.    5.336  1.35E-07  4.76E-05  6.74E-08  2.37E-05  0.00E+00  0.00E+00  2.03E-07  7.12E-05  6.40E-03  0.30569
   1876.    5.330  1.17E-07  4.11E-05  8.69E-08  3.06E-05  0.00E+00  0.00E+00  2.04E-07  7.16E-05  6.40E-03  0.39682
   1878.    5.325  1.13E-07  3.98E-05  8.68E-08  3.06E-05  0.00E+00  0.00E+00  2.00E-07  7.04E-05  6.40E-03  0.39942
   1880.    5.319  1.07E-07  3.77E-05  9.33E-08  3.30E-05  0.00E+00  0.00E+00  2.00E-07  7.07E-05  6.40E-03  0.43300
   1882.    5.313  1.03E-07  3.63E-05  9.78E-08  3.46E-05  0.00E+00  0.00E+00  2.00E-07  7.10E-05  6.40E-03  0.45687
   1884.    5.308  1.28E-07  4.53E-05  4.45E-08  1.58E-05  0.00E+00  0.00E+00  1.72E-07  6.11E-05  6.40E-03  0.20884
   1886.    5.302  1.40E-07  4.98E-05  2.91E-08  1.03E-05  0.00E+00  0.00E+00  1.69E-07  6.02E-05  6.40E-03  0.13841
   1888.    5.297  1.31E-07  4.66E-05  2.05E-08  7.30E-06  0.00E+00  0.00E+00  1.51E-07  5.39E-05  6.40E-03  0.09768
   1890.    5.291  1.12E-07  4.01E-05  5.07E-09  1.81E-06  0.00E+00  0.00E+00  1.17E-07  4.19E-05  6.40E-03  0.02455
   1892.    5.285  1.39E-07  4.98E-05  2.01E-08  7.20E-06  0.00E+00  0.00E+00  1.59E-07  5.70E-05  6.40E-03  0.09816
   1894.    5.280  1.33E-07  4.76E-05  1.60E-08  5.75E-06  0.00E+00  0.00E+00  1.49E-07  5.34E-05  6.40E-03  0.07831
   1896.    5.274  1.20E-07  4.32E-05  2.33E-08  8.37E-06  0.00E+00  0.00E+00  1.43E-07  5.16E-05  6.41E-03  0.11571
   1898.    5.269  1.03E-07  3.70E-05  7.74E-08  2.79E-05  0.00E+00  0.00E+00  1.80E-07  6.49E-05  6.41E-03  0.38676
   1900.    5.263  7.95E-08  2.87E-05  1.07E-07  3.86E-05  0.00E+00  0.00E+00  1.86E-07  6.73E-05  6.41E-03  0.53684
  iv         1905
1                                             RADIANCE(WATTS/CM2-STER-XXX)
0  FREQ   WAVLEN    PATH THERMAL      SURFACE EMISSION    SURFACE REFLECTED     TOTAL RADIANCE   INTEGRAL    TOTAL
  (CM-1) (MICRN)    (CM-1)   (MICRN)    (CM-1)   (MICRN)    (CM-1)   (MICRN)    (CM-1)   (MICRN)    (CM-1)   TRANS

   1902.    5.258  9.31E-08  3.37E-05  8.09E-08  2.93E-05  0.00E+00  0.00E+00  1.74E-07  6.29E-05  6.41E-03  0.40925
   1904.    5.252  1.11E-07  4.03E-05  4.59E-08  1.66E-05  0.00E+00  0.00E+00  1.57E-07  5.70E-05  6.41E-03  0.23398
   1906.    5.247  1.18E-07  4.29E-05  3.36E-08  1.22E-05  0.00E+00  0.00E+00  1.52E-07  5.51E-05  6.41E-03  0.17275
   1908.    5.241  1.10E-07  3.99E-05  9.45E-09  3.44E-06  0.00E+00  0.00E+00  1.19E-07  4.34E-05  6.41E-03  0.04870
   1910.    5.236  1.06E-07  3.86E-05  1.20E-08  4.38E-06  0.00E+00  0.00E+00  1.18E-07  4.30E-05  6.41E-03  0.06320
   1912.    5.230  1.07E-07  3.90E-05  4.71E-08  1.72E-05  0.00E+00  0.00E+00  1.54E-07  5.63E-05  6.41E-03  0.24883
   1914.    5.225  1.07E-07  3.93E-05  5.45E-08  2.00E-05  0.00E+00  0.00E+00  1.62E-07  5.92E-05  6.41E-03  0.28947
   1916.    5.219  1.11E-07  4.06E-05  2.63E-08  9.64E-06  0.00E+00  0.00E+00  1.37E-07  5.03E-05  6.41E-03  0.14024
   1918.    5.214  8.87E-08  3.26E-05  3.60E-09  1.32E-06  0.00E+00  0.00E+00  9.23E-08  3.40E-05  6.41E-03  0.01933
   1920.    5.208  1.06E-07  3.92E-05  4.70E-09  1.73E-06  0.00E+00  0.00E+00  1.11E-07  4.10E-05  6.41E-03  0.02565
   1922.    5.203  1.02E-07  3.78E-05  3.64E-09  1.35E-06  0.00E+00  0.00E+00  1.06E-07  3.91E-05  6.41E-03  0.01990
   1924.    5.198  9.89E-08  3.66E-05  1.61E-08  5.97E-06  0.00E+00  0.00E+00  1.15E-07  4.26E-05  6.41E-03  0.08972
   1926.    5.192  9.02E-08  3.35E-05  6.62E-08  2.45E-05  0.00E+00  0.00E+00  1.56E-07  5.80E-05  6.41E-03  0.36993
   1928.    5.187  6.24E-08  2.32E-05  1.05E-07  3.92E-05  0.00E+00  0.00E+00  1.68E-07  6.24E-05  6.41E-03  0.59322
   1930.    5.181  5.12E-08  1.91E-05  1.17E-07  4.36E-05  0.00E+00  0.00E+00  1.68E-07  6.27E-05  6.41E-03  0.66359
   1932.    5.176  6.61E-08  2.47E-05  7.38E-08  2.76E-05  0.00E+00  0.00E+00  1.40E-07  5.22E-05  6.41E-03  0.42090
   1934.    5.171  6.95E-08  2.60E-05  6.55E-08  2.45E-05  0.00E+00  0.00E+00  1.35E-07  5.05E-05  6.41E-03  0.37829
   1936.    5.165  5.63E-08  2.11E-05  1.05E-07  3.93E-05  0.00E+00  0.00E+00  1.61E-07  6.04E-05  6.41E-03  0.60939
   1938.    5.160  6.38E-08  2.40E-05  9.94E-08  3.73E-05  0.00E+00  0.00E+00  1.63E-07  6.13E-05  6.41E-03  0.58156
   1940.    5.155  8.93E-08  3.36E-05  6.06E-08  2.28E-05  0.00E+00  0.00E+00  1.50E-07  5.64E-05  6.41E-03  0.35666
   1942.    5.149  9.33E-08  3.52E-05  1.34E-08  5.07E-06  0.00E+00  0.00E+00  1.07E-07  4.02E-05  6.41E-03  0.07951
   1944.    5.144  9.53E-08  3.60E-05  2.35E-09  8.88E-07  0.00E+00  0.00E+00  9.77E-08  3.69E-05  6.41E-03  0.01412
   1946.    5.139  9.98E-08  3.78E-05  1.52E-08  5.75E-06  0.00E+00  0.00E+00  1.15E-07  4.36E-05  6.41E-03  0.09238
   1948.    5.133  8.07E-08  3.06E-05  6.50E-08  2.47E-05  0.00E+00  0.00E+00  1.46E-07  5.53E-05  6.41E-03  0.39724
   1950.    5.128  5.48E-08  2.09E-05  1.02E-07  3.87E-05  0.00E+00  0.00E+00  1.57E-07  5.95E-05  6.41E-03  0.62551
   1952.    5.123  4.74E-08  1.81E-05  1.09E-07  4.14E-05  0.00E+00  0.00E+00  1.56E-07  5.95E-05  6.41E-03  0.67313
   1954.    5.118  7.44E-08  2.84E-05  6.81E-08  2.60E-05  0.00E+00  0.00E+00  1.42E-07  5.44E-05  6.41E-03  0.42399
   1956.    5.112  7.91E-08  3.03E-05  5.81E-08  2.22E-05  0.00E+00  0.00E+00  1.37E-07  5.25E-05  6.41E-03  0.36643
   1958.    5.107  5.22E-08  2.00E-05  9.75E-08  3.74E-05  0.00E+00  0.00E+00  1.50E-07  5.74E-05  6.41E-03  0.61917
   1960.    5.102  5.60E-08  2.15E-05  8.74E-08  3.36E-05  0.00E+00  0.00E+00  1.43E-07  5.51E-05  6.41E-03  0.55876
   1962.    5.097  6.32E-08  2.43E-05  7.87E-08  3.03E-05  0.00E+00  0.00E+00  1.42E-07  5.46E-05  6.41E-03  0.50838
   1964.    5.092  5.65E-08  2.18E-05  8.63E-08  3.33E-05  0.00E+00  0.00E+00  1.43E-07  5.51E-05  6.41E-03  0.56049
   1966.    5.086  8.06E-08  3.12E-05  3.07E-08  1.19E-05  0.00E+00  0.00E+00  1.11E-07  4.30E-05  6.42E-03  0.20005
   1968.    5.081  8.38E-08  3.24E-05  3.15E-08  1.22E-05  0.00E+00  0.00E+00  1.15E-07  4.46E-05  6.42E-03  0.20911
   1970.    5.076  4.78E-08  1.85E-05  9.54E-08  3.70E-05  0.00E+00  0.00E+00  1.43E-07  5.56E-05  6.42E-03  0.63678
   1972.    5.071  2.29E-08  8.89E-06  1.24E-07  4.83E-05  0.00E+00  0.00E+00  1.47E-07  5.72E-05  6.42E-03  0.83382
   1974.    5.066  2.30E-08  8.98E-06  1.22E-07  4.74E-05  0.00E+00  0.00E+00  1.45E-07  5.63E-05  6.42E-03  0.82265
   1976.    5.061  3.50E-08  1.37E-05  1.05E-07  4.10E-05  0.00E+00  0.00E+00  1.40E-07  5.46E-05  6.42E-03  0.71644
   1978.    5.056  2.42E-08  9.48E-06  1.18E-07  4.61E-05  0.00E+00  0.00E+00  1.42E-07  5.56E-05  6.42E-03  0.81160
   1980.    5.051  1.85E-08  7.27E-06  1.24E-07  4.86E-05  0.00E+00  0.00E+00  1.42E-07  5.58E-05  6.42E-03  0.85918
   1982.    5.045  2.05E-08  8.03E-06  1.21E-07  4.74E-05  0.00E+00  0.00E+00  1.41E-07  5.54E-05  6.42E-03  0.84369
   1984.    5.040  2.16E-08  8.52E-06  1.18E-07  4.66E-05  0.00E+00  0.00E+00  1.40E-07  5.51E-05  6.42E-03  0.83518
   1986.    5.035  4.15E-08  1.64E-05  9.05E-08  3.57E-05  0.00E+00  0.00E+00  1.32E-07  5.21E-05  6.42E-03  0.64271
   1988.    5.030  7.52E-08  2.97E-05  4.16E-08  1.64E-05  0.00E+00  0.00E+00  1.17E-07  4.62E-05  6.42E-03  0.29739
   1990.    5.025  8.45E-08  3.35E-05  2.74E-08  1.09E-05  0.00E+00  0.00E+00  1.12E-07  4.43E-05  6.42E-03  0.19812
   1992.    5.020  7.68E-08  3.05E-05  1.46E-08  5.81E-06  0.00E+00  0.00E+00  9.14E-08  3.63E-05  6.42E-03  0.10659
   1994.    5.015  5.84E-08  2.32E-05  5.40E-08  2.15E-05  0.00E+00  0.00E+00  1.12E-07  4.47E-05  6.42E-03  0.39796
   1996.    5.010  3.53E-08  1.40E-05  9.68E-08  3.86E-05  0.00E+00  0.00E+00  1.32E-07  5.26E-05  6.42E-03  0.71694
   1998.    5.005  4.70E-08  1.88E-05  7.69E-08  3.07E-05  0.00E+00  0.00E+00  1.24E-07  4.95E-05  6.42E-03  0.57357
   2000.    5.000  3.73E-08  1.49E-05  8.63E-08  3.45E-05  0.00E+00  0.00E+00  1.24E-07  4.95E-05  6.42E-03  0.65064
  iv         2005
1                                             RADIANCE(WATTS/CM2-STER-XXX)
0  FREQ   WAVLEN    PATH THERMAL      SURFACE EMISSION    SURFACE REFLECTED     TOTAL RADIANCE   INTEGRAL    TOTAL
  (CM-1) (MICRN)    (CM-1)   (MICRN)    (CM-1)   (MICRN)    (CM-1)   (MICRN)    (CM-1)   (MICRN)    (CM-1)   TRANS

   2002.    4.995  1.48E-08  5.92E-06  1.16E-07  4.63E-05  0.00E+00  0.00E+00  1.30E-07  5.22E-05  6.42E-03  0.87728
   2004.    4.990  1.23E-08  4.96E-06  1.17E-07  4.70E-05  0.00E+00  0.00E+00  1.29E-07  5.19E-05  6.42E-03  0.89535
   2006.    4.985  2.51E-08  1.01E-05  1.01E-07  4.05E-05  0.00E+00  0.00E+00  1.26E-07  5.06E-05  6.42E-03  0.77647
   2008.    4.980  4.74E-08  1.91E-05  7.03E-08  2.83E-05  0.00E+00  0.00E+00  1.18E-07  4.74E-05  6.42E-03  0.54628
   2010.    4.975  3.34E-08  1.35E-05  8.69E-08  3.51E-05  0.00E+00  0.00E+00  1.20E-07  4.86E-05  6.42E-03  0.68240
   2012.    4.970  1.54E-08  6.25E-06  1.09E-07  4.41E-05  0.00E+00  0.00E+00  1.24E-07  5.04E-05  6.42E-03  0.86195
   2014.    4.965  2.78E-08  1.13E-05  9.36E-08  3.80E-05  0.00E+00  0.00E+00  1.21E-07  4.92E-05  6.42E-03  0.74568
   2016.    4.960  6.23E-08  2.53E-05  4.01E-08  1.63E-05  0.00E+00  0.00E+00  1.02E-07  4.16E-05  6.42E-03  0.32131
   2018.    4.955  7.32E-08  2.98E-05  1.87E-08  7.62E-06  0.00E+00  0.00E+00  9.19E-08  3.74E-05  6.42E-03  0.15213
   2020.    4.950  5.04E-08  2.05E-05  5.89E-08  2.41E-05  0.00E+00  0.00E+00  1.09E-07  4.46E-05  6.42E-03  0.48317
   2022.    4.946  3.22E-08  1.32E-05  8.31E-08  3.40E-05  0.00E+00  0.00E+00  1.15E-07  4.71E-05  6.42E-03  0.68462
   2024.    4.941  2.98E-08  1.22E-05  8.47E-08  3.47E-05  0.00E+00  0.00E+00  1.15E-07  4.69E-05  6.42E-03  0.70479
   2026.    4.936  3.10E-08  1.27E-05  8.03E-08  3.29E-05  0.00E+00  0.00E+00  1.11E-07  4.57E-05  6.42E-03  0.67219
   2028.    4.931  2.66E-08  1.09E-05  8.40E-08  3.46E-05  0.00E+00  0.00E+00  1.11E-07  4.55E-05  6.42E-03  0.71075
   2030.    4.926  1.02E-08  4.20E-06  1.04E-07  4.30E-05  0.00E+00  0.00E+00  1.15E-07  4.72E-05  6.42E-03  0.89017
   2032.    4.921  1.00E-08  4.14E-06  1.04E-07  4.27E-05  0.00E+00  0.00E+00  1.14E-07  4.69E-05  6.42E-03  0.88926
   2034.    4.916  1.49E-08  6.15E-06  9.70E-08  4.01E-05  0.00E+00  0.00E+00  1.12E-07  4.63E-05  6.42E-03  0.84024
   2036.    4.912  1.90E-08  7.87E-06  8.73E-08  3.62E-05  0.00E+00  0.00E+00  1.06E-07  4.41E-05  6.42E-03  0.76252
   2038.    4.907  2.73E-08  1.13E-05  7.45E-08  3.09E-05  0.00E+00  0.00E+00  1.02E-07  4.23E-05  6.42E-03  0.65616
   2040.    4.902  3.83E-08  1.59E-05  5.81E-08  2.42E-05  0.00E+00  0.00E+00  9.64E-08  4.01E-05  6.42E-03  0.51560
   2042.    4.897  5.21E-08  2.17E-05  3.94E-08  1.64E-05  0.00E+00  0.00E+00  9.16E-08  3.82E-05  6.42E-03  0.35313
   2044.    4.892  3.96E-08  1.66E-05  5.37E-08  2.24E-05  0.00E+00  0.00E+00  9.33E-08  3.90E-05  6.42E-03  0.48507
   2046.    4.888  2.93E-08  1.23E-05  6.60E-08  2.76E-05  0.00E+00  0.00E+00  9.53E-08  3.99E-05  6.42E-03  0.60089
   2048.    4.883  2.76E-08  1.16E-05  6.34E-08  2.66E-05  0.00E+00  0.00E+00  9.11E-08  3.82E-05  6.42E-03  0.58267
   2050.    4.878  2.46E-08  1.03E-05  6.21E-08  2.61E-05  0.00E+00  0.00E+00  8.66E-08  3.64E-05  6.42E-03  0.57477
   2052.    4.873  2.65E-08  1.12E-05  5.68E-08  2.39E-05  0.00E+00  0.00E+00  8.33E-08  3.51E-05  6.43E-03  0.53019
   2054.    4.869  2.72E-08  1.15E-05  5.47E-08  2.31E-05  0.00E+00  0.00E+00  8.19E-08  3.46E-05  6.43E-03  0.51551
   2056.    4.864  2.64E-08  1.11E-05  5.47E-08  2.31E-05  0.00E+00  0.00E+00  8.11E-08  3.43E-05  6.43E-03  0.51922
   2058.    4.859  2.89E-08  1.22E-05  4.95E-08  2.10E-05  0.00E+00  0.00E+00  7.84E-08  3.32E-05  6.43E-03  0.47381
   2060.    4.854  3.43E-08  1.46E-05  3.95E-08  1.67E-05  0.00E+00  0.00E+00  7.38E-08  3.13E-05  6.43E-03  0.38095
   2062.    4.850  3.29E-08  1.40E-05  3.99E-08  1.70E-05  0.00E+00  0.00E+00  7.28E-08  3.10E-05  6.43E-03  0.38876
   2064.    4.845  4.13E-08  1.76E-05  2.43E-08  1.03E-05  0.00E+00  0.00E+00  6.56E-08  2.79E-05  6.43E-03  0.23755
   2066.    4.840  3.96E-08  1.69E-05  2.82E-08  1.20E-05  0.00E+00  0.00E+00  6.78E-08  2.89E-05  6.43E-03  0.27987
   2068.    4.836  2.61E-08  1.12E-05  4.76E-08  2.04E-05  0.00E+00  0.00E+00  7.37E-08  3.15E-05  6.43E-03  0.47547
   2070.    4.831  2.23E-08  9.57E-06  5.22E-08  2.24E-05  0.00E+00  0.00E+00  7.45E-08  3.19E-05  6.43E-03  0.52570
   2072.    4.826  2.46E-08  1.06E-05  5.11E-08  2.19E-05  0.00E+00  0.00E+00  7.57E-08  3.25E-05  6.43E-03  0.51828
   2074.    4.822  2.91E-08  1.25E-05  4.75E-08  2.04E-05  0.00E+00  0.00E+00  7.65E-08  3.29E-05  6.43E-03  0.48566
   2076.    4.817  2.57E-08  1.11E-05  3.09E-08  1.33E-05  0.00E+00  0.00E+00  5.67E-08  2.44E-05  6.43E-03  0.31839
   2078.    4.812  2.50E-08  1.08E-05  1.55E-08  6.67E-06  0.00E+00  0.00E+00  4.05E-08  1.75E-05  6.43E-03  0.16117
   2080.    4.808  2.47E-08  1.07E-05  3.91E-08  1.69E-05  0.00E+00  0.00E+00  6.38E-08  2.76E-05  6.43E-03  0.41104
   2082.    4.803  1.99E-08  8.64E-06  5.28E-08  2.29E-05  0.00E+00  0.00E+00  7.28E-08  3.15E-05  6.43E-03  0.55924
   2084.    4.798  1.53E-08  6.64E-06  5.86E-08  2.54E-05  0.00E+00  0.00E+00  7.39E-08  3.21E-05  6.43E-03  0.62531
   2086.    4.794  1.69E-08  7.34E-06  5.69E-08  2.48E-05  0.00E+00  0.00E+00  7.38E-08  3.21E-05  6.43E-03  0.61242
   2088.    4.789  2.09E-08  9.11E-06  5.14E-08  2.24E-05  0.00E+00  0.00E+00  7.23E-08  3.15E-05  6.43E-03  0.55709
   2090.    4.785  2.56E-08  1.12E-05  4.34E-08  1.90E-05  0.00E+00  0.00E+00  6.90E-08  3.02E-05  6.43E-03  0.47543
   2092.    4.780  2.08E-08  9.10E-06  4.62E-08  2.02E-05  0.00E+00  0.00E+00  6.70E-08  2.93E-05  6.43E-03  0.51005
   2094.    4.776  1.76E-08  7.70E-06  4.76E-08  2.09E-05  0.00E+00  0.00E+00  6.51E-08  2.86E-05  6.43E-03  0.52973
   2096.    4.771  1.21E-08  5.32E-06  5.88E-08  2.58E-05  0.00E+00  0.00E+00  7.09E-08  3.12E-05  6.43E-03  0.66031
   2098.    4.766  1.08E-08  4.75E-06  6.08E-08  2.68E-05  0.00E+00  0.00E+00  7.16E-08  3.15E-05  6.43E-03  0.68859
   2100.    4.762  1.14E-08  5.03E-06  5.97E-08  2.63E-05  0.00E+00  0.00E+00  7.11E-08  3.14E-05  6.43E-03  0.68116
  iv         2105
1                                             RADIANCE(WATTS/CM2-STER-XXX)
0  FREQ   WAVLEN    PATH THERMAL      SURFACE EMISSION    SURFACE REFLECTED     TOTAL RADIANCE   INTEGRAL    TOTAL
  (CM-1) (MICRN)    (CM-1)   (MICRN)    (CM-1)   (MICRN)    (CM-1)   (MICRN)    (CM-1)   (MICRN)    (CM-1)   TRANS

   2102.    4.757  8.08E-09  3.57E-06  6.32E-08  2.79E-05  0.00E+00  0.00E+00  7.13E-08  3.15E-05  6.43E-03  0.72760
   2104.    4.753  7.75E-09  3.43E-06  6.30E-08  2.79E-05  0.00E+00  0.00E+00  7.07E-08  3.13E-05  6.43E-03  0.73099
   2106.    4.748  1.23E-08  5.46E-06  5.59E-08  2.48E-05  0.00E+00  0.00E+00  6.82E-08  3.02E-05  6.43E-03  0.65377
   2108.    4.744  1.05E-08  4.69E-06  5.53E-08  2.46E-05  0.00E+00  0.00E+00  6.58E-08  2.92E-05  6.43E-03  0.65242
   2110.    4.739  6.93E-09  3.09E-06  6.28E-08  2.79E-05  0.00E+00  0.00E+00  6.97E-08  3.10E-05  6.43E-03  0.74731
   2112.    4.735  8.10E-09  3.62E-06  6.74E-08  3.01E-05  0.00E+00  0.00E+00  7.55E-08  3.37E-05  6.43E-03  0.80890
   2114.    4.730  1.82E-08  8.15E-06  5.23E-08  2.34E-05  0.00E+00  0.00E+00  7.05E-08  3.15E-05  6.43E-03  0.63185
   2116.    4.726  1.62E-08  7.25E-06  4.83E-08  2.16E-05  0.00E+00  0.00E+00  6.45E-08  2.89E-05  6.43E-03  0.58995
   2118.    4.721  6.78E-09  3.04E-06  5.51E-08  2.47E-05  0.00E+00  0.00E+00  6.19E-08  2.78E-05  6.43E-03  0.67878
   2120.    4.717  7.47E-09  3.36E-06  5.22E-08  2.34E-05  0.00E+00  0.00E+00  5.96E-08  2.68E-05  6.43E-03  0.64737
   2122.    4.713  8.14E-09  3.66E-06  5.08E-08  2.29E-05  0.00E+00  0.00E+00  5.89E-08  2.65E-05  6.43E-03  0.63607
   2124.    4.708  9.04E-09  4.08E-06  5.03E-08  2.27E-05  0.00E+00  0.00E+00  5.93E-08  2.68E-05  6.43E-03  0.63507
   2126.    4.704  7.13E-09  3.22E-06  5.51E-08  2.49E-05  0.00E+00  0.00E+00  6.22E-08  2.81E-05  6.43E-03  0.70147
   2128.    4.699  7.79E-09  3.53E-06  5.45E-08  2.47E-05  0.00E+00  0.00E+00  6.23E-08  2.82E-05  6.43E-03  0.69982
   2130.    4.695  9.80E-09  4.44E-06  5.39E-08  2.45E-05  0.00E+00  0.00E+00  6.37E-08  2.89E-05  6.43E-03  0.69830
   2132.    4.690  4.07E-09  1.85E-06  6.71E-08  3.05E-05  0.00E+00  0.00E+00  7.12E-08  3.23E-05  6.43E-03  0.87642
   2134.    4.686  4.88E-09  2.22E-06  6.89E-08  3.14E-05  0.00E+00  0.00E+00  7.37E-08  3.36E-05  6.43E-03  0.90645
   2136.    4.682  1.58E-08  7.20E-06  5.60E-08  2.56E-05  0.00E+00  0.00E+00  7.18E-08  3.28E-05  6.43E-03  0.74341
   2138.    4.677  1.73E-08  7.93E-06  5.43E-08  2.48E-05  0.00E+00  0.00E+00  7.16E-08  3.27E-05  6.43E-03  0.72717
   2140.    4.673  8.66E-09  3.97E-06  6.39E-08  2.92E-05  0.00E+00  0.00E+00  7.25E-08  3.32E-05  6.43E-03  0.86295
   2142.    4.669  3.07E-09  1.41E-06  6.95E-08  3.19E-05  0.00E+00  0.00E+00  7.26E-08  3.33E-05  6.43E-03  0.94669
   2144.    4.664  6.48E-09  2.98E-06  6.49E-08  2.98E-05  0.00E+00  0.00E+00  7.14E-08  3.28E-05  6.43E-03  0.89136
   2146.    4.660  9.13E-09  4.21E-06  6.14E-08  2.83E-05  0.00E+00  0.00E+00  7.05E-08  3.25E-05  6.43E-03  0.85000
   2148.    4.655  5.77E-09  2.66E-06  6.46E-08  2.98E-05  0.00E+00  0.00E+00  7.04E-08  3.25E-05  6.43E-03  0.90263
   2150.    4.651  3.50E-09  1.62E-06  6.65E-08  3.07E-05  0.00E+00  0.00E+00  7.00E-08  3.23E-05  6.43E-03  0.93635
   2152.    4.647  6.01E-09  2.78E-06  6.29E-08  2.91E-05  0.00E+00  0.00E+00  6.89E-08  3.19E-05  6.43E-03  0.89292
   2154.    4.643  6.01E-09  2.79E-06  6.22E-08  2.89E-05  0.00E+00  0.00E+00  6.82E-08  3.16E-05  6.43E-03  0.89135
   2156.    4.638  4.62E-09  2.15E-06  6.32E-08  2.94E-05  0.00E+00  0.00E+00  6.79E-08  3.15E-05  6.43E-03  0.91402
   2158.    4.634  4.42E-09  2.06E-06  6.28E-08  2.93E-05  0.00E+00  0.00E+00  6.72E-08  3.13E-05  6.43E-03  0.91568
   2160.    4.630  5.43E-09  2.53E-06  6.10E-08  2.85E-05  0.00E+00  0.00E+00  6.64E-08  3.10E-05  6.43E-03  0.89663
   2162.    4.625  9.93E-09  4.64E-06  5.53E-08  2.58E-05  0.00E+00  0.00E+00  6.52E-08  3.05E-05  6.43E-03  0.81907
   2164.    4.621  6.80E-09  3.18E-06  5.82E-08  2.73E-05  0.00E+00  0.00E+00  6.50E-08  3.04E-05  6.43E-03  0.87048
   2166.    4.617  4.17E-09  1.96E-06  6.05E-08  2.84E-05  0.00E+00  0.00E+00  6.47E-08  3.04E-05  6.43E-03  0.91259
   2168.    4.613  4.07E-09  1.91E-06  6.01E-08  2.82E-05  0.00E+00  0.00E+00  6.41E-08  3.01E-05  6.43E-03  0.91321
   2170.    4.608  5.45E-09  2.57E-06  5.79E-08  2.72E-05  0.00E+00  0.00E+00  6.33E-08  2.98E-05  6.43E-03  0.88721
   2172.    4.604  5.89E-09  2.78E-06  5.68E-08  2.68E-05  0.00E+00  0.00E+00  6.27E-08  2.96E-05  6.43E-03  0.87839
   2174.    4.600  4.59E-09  2.17E-06  5.77E-08  2.73E-05  0.00E+00  0.00E+00  6.23E-08  2.94E-05  6.43E-03  0.89956
   2176.    4.596  4.51E-09  2.14E-06  5.71E-08  2.71E-05  0.00E+00  0.00E+00  6.17E-08  2.92E-05  6.43E-03  0.89897
   2178.    4.591  4.58E-09  2.17E-06  5.65E-08  2.68E-05  0.00E+00  0.00E+00  6.11E-08  2.90E-05  6.43E-03  0.89600
   2180.    4.587  5.96E-09  2.83E-06  5.44E-08  2.58E-05  0.00E+00  0.00E+00  6.03E-08  2.87E-05  6.43E-03  0.87011
   2182.    4.583  6.07E-09  2.89E-06  5.37E-08  2.56E-05  0.00E+00  0.00E+00  5.98E-08  2.85E-05  6.43E-03  0.86647
   2184.    4.579  5.62E-09  2.68E-06  5.36E-08  2.56E-05  0.00E+00  0.00E+00  5.92E-08  2.82E-05  6.43E-03  0.87217
   2186.    4.575  7.29E-09  3.48E-06  5.12E-08  2.45E-05  0.00E+00  0.00E+00  5.85E-08  2.80E-05  6.43E-03  0.84086
   2188.    4.570  6.90E-09  3.30E-06  5.11E-08  2.45E-05  0.00E+00  0.00E+00  5.80E-08  2.78E-05  6.43E-03  0.84637
   2190.    4.566  5.54E-09  2.66E-06  5.21E-08  2.50E-05  0.00E+00  0.00E+00  5.76E-08  2.76E-05  6.43E-03  0.86933
   2192.    4.562  5.84E-09  2.81E-06  5.12E-08  2.46E-05  0.00E+00  0.00E+00  5.71E-08  2.74E-05  6.43E-03  0.86236
   2194.    4.558  6.23E-09  3.00E-06  5.02E-08  2.42E-05  0.00E+00  0.00E+00  5.65E-08  2.72E-05  6.43E-03  0.85335
   2196.    4.554  5.86E-09  2.83E-06  5.01E-08  2.42E-05  0.00E+00  0.00E+00  5.60E-08  2.70E-05  6.43E-03  0.85804
   2198.    4.550  6.39E-09  3.09E-06  4.89E-08  2.36E-05  0.00E+00  0.00E+00  5.53E-08  2.67E-05  6.43E-03  0.84537
   2200.    4.545  7.34E-09  3.55E-06  4.73E-08  2.29E-05  0.00E+00  0.00E+00  5.47E-08  2.65E-05  6.43E-03  0.82468
0INTEGRATED ABSORPTION FROM    2 TO 2200 CM-1 =   1506.96 CM-1
 AVERAGE TRANSMITTANCE =0.3144

0INTEGRATED RADIANCE =  6.435E-03 WATTS CM-2 STER-1
 MINIMUM RADIANCE    =  1.078E-09 WATTS CM-2 STER-1 (CM-1)-1 AT        2.0 CM-1
 MAXIMUM RADIANCE    =  9.476E-06 WATTS CM-2 STER-1 (CM-1)-1 AT      498.0 CM-1
 BOUNDARY TEMPERATURE =     257.84 K
 BOUNDARY EMISSIVITY =       0.971
0 CARD 5 *****    0


