*****  MODTRAN3 Version 1.3  12/1/95  *****
0 CARD 1  *****T   4    3    1    0    0    0    0    0    0    0    0    0   -1   0.000  -1.00
 co2mx co2rat ch4rat h2orat t_o3rat s_o3rat scalefreon    800.00000       2.4242425       1.0000000       1.0000000       1.0000000       1.0000000       1.0000000    
0 CARD 2  *****    0    0    0    0    0    0     0.000     0.000     0.000     0.000     0.000
0 CARD 3  *****    70.000     0.000   180.000     0.000     0.000     0.000    0
0 CARD 4  *****         2      2200         2         3
0 PROGRAM WILL COMPUTE RADIANCE                
0 ATMOSPHERIC MODEL
          TEMPERATURE =    4     SUBARCTIC   SUMMER  
          WATER VAPOR =    4     SUBARCTIC   SUMMER  
          OZONE       =    4     SUBARCTIC   SUMMER  
                      M4 =     4 M5 =     4 M6 =     4 MDEF =     1
0 SLANT PATH TO SPACE
          H1    =     70.000 KM
          HMIN  =      0.000 KM
          ANGLE =    180.000 DEG
0 FREQUENCY RANGE
             IV1 =         2 CM-1  (   5000.00 MICROMETERS)
             IV2 =      2200 CM-1  (      4.55 MICROMETERS)
             IDV =         2 CM-1
           IFWHM =         3 CM-1
1
  ATMOSPHERIC PROFILES

   I     Z       P       T        N2       CNTMSLF MOL SCAT     N-1     O3 (UV)  O2 (UV)
        (KM)    (MB)    (K)            (MOL/CM2 KM)   (-)       (-)  (ATM CM/KM) (ATM CM/KM)

   1     0.00 1010.000  288.0  8.204E-01 4.102E+20 9.453E-01 2.713E-04 2.279E-03 3.523E+04
   2     1.00  896.000  282.5  6.710E-01 1.789E+20 8.549E-01 2.455E-04 2.512E-03 3.053E+04
   3     2.00  792.900  277.1  5.461E-01 8.800E+19 7.713E-01 2.216E-04 2.604E-03 2.642E+04
   4     3.00  700.000  271.7  4.428E-01 3.654E+19 6.945E-01 1.996E-04 2.698E-03 2.286E+04
   5     4.00  616.000  266.3  3.569E-01 1.455E+19 6.235E-01 1.792E-04 2.790E-03 1.976E+04
   6     5.00  541.000  260.9  2.868E-01 5.061E+18 5.589E-01 1.607E-04 2.976E-03 1.709E+04
   7     6.00  474.000  253.9  2.325E-01 1.485E+18 5.032E-01 1.447E-04 3.301E-03 1.490E+04
   8     7.00  413.000  246.9  1.866E-01 4.316E+17 4.509E-01 1.297E-04 3.487E-03 1.294E+04
   9     8.00  359.000  240.0  1.492E-01 8.744E+16 4.032E-01 1.160E-04 3.672E-03 1.124E+04
  10     9.00  310.800  233.0  1.187E-01 7.425E+15 3.595E-01 1.034E-04 5.102E-03 9.750E+03
  11    10.00  267.700  226.0  9.358E-02 6.290E+14 3.193E-01 9.182E-05 6.030E-03 8.436E+03
  12    11.00  230.000  226.0  6.908E-02 4.568E+13 2.743E-01 7.889E-05 8.361E-03 7.034E+03
  13    12.00  197.700  226.0  5.104E-02 6.870E+12 2.358E-01 6.781E-05 9.661E-03 5.888E+03
  14    13.00  170.000  226.0  3.774E-02 2.794E+12 2.028E-01 5.831E-05 1.013E-02 4.947E+03
  15    14.00  146.000  226.0  2.784E-02 1.665E+12 1.741E-01 5.008E-05 1.044E-02 4.162E+03
  16    15.00  126.000  226.0  2.073E-02 1.240E+12 1.503E-01 4.322E-05 1.051E-02 3.530E+03
  17    16.00  108.000  226.0  1.523E-02 9.111E+11 1.288E-01 3.705E-05 1.094E-02 2.978E+03
  18    17.00   92.800  226.0  1.125E-02 6.896E+11 1.107E-01 3.183E-05 1.106E-02 2.524E+03
  19    18.00   79.800  226.0  8.316E-03 5.749E+11 9.517E-02 2.737E-05 1.236E-02 2.145E+03
  20    19.00   68.600  226.0  6.146E-03 4.653E+11 8.182E-02 2.353E-05 1.390E-02 1.825E+03
  21    20.00   59.000  226.0  4.546E-03 3.596E+11 7.037E-02 2.024E-05 1.477E-02 1.556E+03
  22    21.00   50.700  226.0  3.357E-03 2.772E+11 6.047E-02 1.739E-05 1.632E-02 1.326E+03
  23    22.00   43.600  226.0  2.482E-03 2.138E+11 5.200E-02 1.496E-05 1.715E-02 1.133E+03
  24    23.00   37.500  226.0  1.836E-03 1.602E+11 4.472E-02 1.286E-05 1.654E-02 9.688E+02
  25    24.00   32.280  227.4  1.344E-03 1.180E+11 3.826E-02 1.100E-05 1.606E-02 8.245E+02
  26    25.00   27.800  228.9  9.838E-04 8.794E+10 3.274E-02 9.415E-06 1.472E-02 7.023E+02
  27    30.00   13.400  235.9  2.152E-04 1.984E+10 1.531E-02 4.403E-06 8.721E-03 3.239E+02
  28    35.00    6.610  248.0  4.738E-05 4.306E+09 7.184E-03 2.066E-06 5.528E-03 1.509E+02
  29    40.00    3.400  262.9  1.116E-05 9.985E+08 3.486E-03 1.003E-06 2.439E-03 7.302E+01
  30    45.00    1.820  274.4  2.934E-06 2.600E+08 1.788E-03 5.142E-07 7.504E-04 3.740E+01
  31    50.00    0.987  278.0  8.408E-07 7.281E+07 9.570E-04 2.752E-07 2.391E-04 2.000E+01
  32    70.00    0.071  217.4  7.114E-09 2.935E+05 8.803E-05 2.532E-08 3.519E-06 1.839E+00
  33   100.00    0.000  191.2  1.122E-13 7.169E-02 3.496E-07 1.005E-10 1.397E-08 5.590E-03
1
  ATMOSPHERIC PROFILES

   I     Z       P       T      CNTMFRN     HNO3    AEROSOL 1 AEROSOL 2 AEROSOL 3 AEROSOL 4 AER1*RH   CIRRUS         RH
        (KM)    (MB)    (K)   MOL/CM2 KM ATM CM/KM   (-)       (-)       (-)       (-)       (-)       (-)      (PERCNT)

   1     0.00 1010.000  288.0  3.226E+22 0.000E+00 0.000E+00 0.000E+00 0.000E+00 0.000E+00 0.000E+00 0.000E+00 7.498E+01
   2     1.00  896.000  282.5  1.933E+22 0.000E+00 0.000E+00 0.000E+00 0.000E+00 0.000E+00 0.000E+00 0.000E+00 6.978E+01
   3     2.00  792.900  277.1  1.226E+22 0.000E+00 0.000E+00 0.000E+00 0.000E+00 0.000E+00 0.000E+00 0.000E+00 6.960E+01
   4     3.00  700.000  271.7  7.126E+21 0.000E+00 0.000E+00 0.000E+00 0.000E+00 0.000E+00 0.000E+00 0.000E+00 6.483E+01
   5     4.00  616.000  266.3  4.044E+21 0.000E+00 0.000E+00 0.000E+00 0.000E+00 0.000E+00 0.000E+00 0.000E+00 6.017E+01
   6     5.00  541.000  260.9  2.140E+21 0.000E+00 0.000E+00 0.000E+00 0.000E+00 0.000E+00 0.000E+00 0.000E+00 5.317E+01
   7     6.00  474.000  253.9  1.045E+21 0.000E+00 0.000E+00 0.000E+00 0.000E+00 0.000E+00 0.000E+00 0.000E+00 5.012E+01
   8     7.00  413.000  246.9  5.050E+20 0.000E+00 0.000E+00 0.000E+00 0.000E+00 0.000E+00 0.000E+00 0.000E+00 4.876E+01
   9     8.00  359.000  240.0  2.033E+20 0.000E+00 0.000E+00 0.000E+00 0.000E+00 0.000E+00 0.000E+00 0.000E+00 4.085E+01
  10     9.00  310.800  233.0  5.286E+19 0.000E+00 0.000E+00 0.000E+00 0.000E+00 0.000E+00 0.000E+00 0.000E+00 2.337E+01
  11    10.00  267.700  226.0  1.366E+19 0.000E+00 0.000E+00 0.000E+00 0.000E+00 0.000E+00 0.000E+00 0.000E+00 1.402E+01
  12    11.00  230.000  226.0  3.164E+18 0.000E+00 0.000E+00 0.000E+00 0.000E+00 0.000E+00 0.000E+00 0.000E+00 3.778E+00
  13    12.00  197.700  226.0  1.055E+18 0.000E+00 0.000E+00 0.000E+00 0.000E+00 0.000E+00 0.000E+00 0.000E+00 1.465E+00
  14    13.00  170.000  226.0  5.783E+17 0.000E+00 0.000E+00 0.000E+00 0.000E+00 0.000E+00 0.000E+00 0.000E+00 9.343E-01
  15    14.00  146.000  226.0  3.834E+17 0.000E+00 0.000E+00 0.000E+00 0.000E+00 0.000E+00 0.000E+00 0.000E+00 7.213E-01
  16    15.00  126.000  226.0  2.856E+17 0.000E+00 0.000E+00 0.000E+00 0.000E+00 0.000E+00 0.000E+00 0.000E+00 6.225E-01
  17    16.00  108.000  226.0  2.098E+17 0.000E+00 0.000E+00 0.000E+00 0.000E+00 0.000E+00 0.000E+00 0.000E+00 5.336E-01
  18    17.00   92.800  226.0  1.568E+17 0.000E+00 0.000E+00 0.000E+00 0.000E+00 0.000E+00 0.000E+00 0.000E+00 4.642E-01
  19    18.00   79.800  226.0  1.231E+17 0.000E+00 0.000E+00 0.000E+00 0.000E+00 0.000E+00 0.000E+00 0.000E+00 4.238E-01
  20    19.00   68.600  226.0  9.522E+16 0.000E+00 0.000E+00 0.000E+00 0.000E+00 0.000E+00 0.000E+00 0.000E+00 3.813E-01
  21    20.00   59.000  226.0  7.200E+16 0.000E+00 0.000E+00 0.000E+00 0.000E+00 0.000E+00 0.000E+00 0.000E+00 3.352E-01
  22    21.00   50.700  226.0  5.433E+16 0.000E+00 0.000E+00 0.000E+00 0.000E+00 0.000E+00 0.000E+00 0.000E+00 2.943E-01
  23    22.00   43.600  226.0  4.103E+16 0.000E+00 0.000E+00 0.000E+00 0.000E+00 0.000E+00 0.000E+00 0.000E+00 2.585E-01
  24    23.00   37.500  226.0  3.054E+16 0.000E+00 0.000E+00 0.000E+00 0.000E+00 0.000E+00 0.000E+00 0.000E+00 2.237E-01
  25    24.00   32.280  227.4  2.242E+16 0.000E+00 0.000E+00 0.000E+00 0.000E+00 0.000E+00 0.000E+00 0.000E+00 1.654E-01
  26    25.00   27.800  228.9  1.657E+16 0.000E+00 0.000E+00 0.000E+00 0.000E+00 0.000E+00 0.000E+00 0.000E+00 1.221E-01
  27    30.00   13.400  235.9  3.680E+15 0.000E+00 0.000E+00 0.000E+00 0.000E+00 0.000E+00 0.000E+00 0.000E+00 2.873E-02
  28    35.00    6.610  248.0  8.044E+14 0.000E+00 0.000E+00 0.000E+00 0.000E+00 0.000E+00 0.000E+00 0.000E+00 4.427E-03
  29    40.00    3.400  262.9  1.880E+14 0.000E+00 0.000E+00 0.000E+00 0.000E+00 0.000E+00 0.000E+00 0.000E+00 6.415E-04
  30    45.00    1.820  274.4  4.919E+13 0.000E+00 0.000E+00 0.000E+00 0.000E+00 0.000E+00 0.000E+00 0.000E+00 1.435E-04
  31    50.00    0.987  278.0  1.393E+13 0.000E+00 0.000E+00 0.000E+00 0.000E+00 0.000E+00 0.000E+00 0.000E+00 5.963E-05
  32    70.00    0.071  217.4  8.138E+10 0.000E+00 0.000E+00 0.000E+00 0.000E+00 0.000E+00 0.000E+00 0.000E+00 7.938E-04
  33   100.00    0.000  191.2  1.597E+05 0.000E+00 0.000E+00 0.000E+00 0.000E+00 0.000E+00 0.000E+00 0.000E+00 1.398E-05
1
  ATMOSPHERIC PROFILES

   I      Z       P       T      H2O      O3       CO2      CO       CH4      N2O      O2       NH3      NO       NO2      SO2
         (KM)    (MB)    (K)  (                                    MBAR                                                       )
   1     0.00 1010.000  288.0  9.54E+00 2.41E-02 8.00E+02 0.00E+00 1.70E+00 0.00E+00 2.09E+05 0.00E+00 0.00E+00 0.00E+00 0.00E+00
   2     1.00  896.000  282.5  6.30E+00 2.94E-02 8.00E+02 0.00E+00 1.70E+00 0.00E+00 2.09E+05 0.00E+00 0.00E+00 0.00E+00 0.00E+00
   3     2.00  792.900  277.1  4.42E+00 3.38E-02 8.00E+02 0.00E+00 1.70E+00 0.00E+00 2.09E+05 0.00E+00 0.00E+00 0.00E+00 0.00E+00
   4     3.00  700.000  271.7  2.85E+00 3.89E-02 8.00E+02 0.00E+00 1.70E+00 0.00E+00 2.09E+05 0.00E+00 0.00E+00 0.00E+00 0.00E+00
   5     4.00  616.000  266.3  1.80E+00 4.48E-02 8.00E+02 0.00E+00 1.70E+00 0.00E+00 2.09E+05 0.00E+00 0.00E+00 0.00E+00 0.00E+00
   6     5.00  541.000  260.9  1.06E+00 5.33E-02 8.00E+02 0.00E+00 1.69E+00 0.00E+00 2.09E+05 0.00E+00 0.00E+00 0.00E+00 0.00E+00
   7     6.00  474.000  253.9  5.74E-01 6.56E-02 8.00E+02 0.00E+00 1.67E+00 0.00E+00 2.09E+05 0.00E+00 0.00E+00 0.00E+00 0.00E+00
   8     7.00  413.000  246.9  3.09E-01 7.74E-02 8.00E+02 0.00E+00 1.65E+00 0.00E+00 2.09E+05 0.00E+00 0.00E+00 0.00E+00 0.00E+00
   9     8.00  359.000  240.0  1.39E-01 9.11E-02 8.00E+02 0.00E+00 1.63E+00 0.00E+00 2.09E+05 0.00E+00 0.00E+00 0.00E+00 0.00E+00
  10     9.00  310.800  233.0  4.06E-02 1.42E-01 8.00E+02 0.00E+00 1.62E+00 0.00E+00 2.09E+05 0.00E+00 0.00E+00 0.00E+00 0.00E+00
  11    10.00  267.700  226.0  1.18E-02 1.89E-01 8.00E+02 0.00E+00 1.58E+00 0.00E+00 2.09E+05 0.00E+00 0.00E+00 0.00E+00 0.00E+00
  12    11.00  230.000  226.0  3.18E-03 3.05E-01 8.00E+02 0.00E+00 1.54E+00 0.00E+00 2.09E+05 0.00E+00 0.00E+00 0.00E+00 0.00E+00
  13    12.00  197.700  226.0  1.23E-03 4.10E-01 8.00E+02 0.00E+00 1.51E+00 0.00E+00 2.09E+05 0.00E+00 0.00E+00 0.00E+00 0.00E+00
  14    13.00  170.000  226.0  7.87E-04 5.00E-01 8.00E+02 0.00E+00 1.47E+00 0.00E+00 2.09E+05 0.00E+00 0.00E+00 0.00E+00 0.00E+00
  15    14.00  146.000  226.0  6.08E-04 6.00E-01 8.00E+02 0.00E+00 1.43E+00 0.00E+00 2.09E+05 0.00E+00 0.00E+00 0.00E+00 0.00E+00
  16    15.00  126.000  226.0  5.25E-04 7.00E-01 8.00E+02 0.00E+00 1.39E+00 0.00E+00 2.09E+05 0.00E+00 0.00E+00 0.00E+00 0.00E+00
  17    16.00  108.000  226.0  4.50E-04 8.50E-01 8.00E+02 0.00E+00 1.34E+00 0.00E+00 2.09E+05 0.00E+00 0.00E+00 0.00E+00 0.00E+00
  18    17.00   92.800  226.0  3.91E-04 1.00E+00 8.00E+02 0.00E+00 1.29E+00 0.00E+00 2.09E+05 0.00E+00 0.00E+00 0.00E+00 0.00E+00
  19    18.00   79.800  226.0  3.57E-04 1.30E+00 8.00E+02 0.00E+00 1.23E+00 0.00E+00 2.09E+05 0.00E+00 0.00E+00 0.00E+00 0.00E+00
  20    19.00   68.600  226.0  3.21E-04 1.70E+00 8.00E+02 0.00E+00 1.16E+00 0.00E+00 2.09E+05 0.00E+00 0.00E+00 0.00E+00 0.00E+00
  21    20.00   59.000  226.0  2.82E-04 2.10E+00 8.00E+02 0.00E+00 1.07E+00 0.00E+00 2.09E+05 0.00E+00 0.00E+00 0.00E+00 0.00E+00
  22    21.00   50.700  226.0  2.48E-04 2.70E+00 8.00E+02 0.00E+00 9.90E-01 0.00E+00 2.09E+05 0.00E+00 0.00E+00 0.00E+00 0.00E+00
  23    22.00   43.600  226.0  2.18E-04 3.30E+00 8.00E+02 0.00E+00 9.17E-01 0.00E+00 2.09E+05 0.00E+00 0.00E+00 0.00E+00 0.00E+00
  24    23.00   37.500  226.0  1.89E-04 3.70E+00 8.00E+02 0.00E+00 8.57E-01 0.00E+00 2.09E+05 0.00E+00 0.00E+00 0.00E+00 0.00E+00
  25    24.00   32.280  227.4  1.62E-04 4.20E+00 8.00E+02 0.00E+00 8.01E-01 0.00E+00 2.09E+05 0.00E+00 0.00E+00 0.00E+00 0.00E+00
  26    25.00   27.800  228.9  1.40E-04 4.50E+00 8.00E+02 0.00E+00 7.48E-01 0.00E+00 2.09E+05 0.00E+00 0.00E+00 0.00E+00 0.00E+00
  27    30.00   13.400  235.9  6.64E-05 5.70E+00 8.00E+02 0.00E+00 6.44E-01 0.00E+00 2.09E+05 0.00E+00 0.00E+00 0.00E+00 0.00E+00
  28    35.00    6.610  248.0  3.09E-05 7.70E+00 8.00E+02 0.00E+00 5.24E-01 0.00E+00 2.09E+05 0.00E+00 0.00E+00 0.00E+00 0.00E+00
  29    40.00    3.400  262.9  1.49E-05 7.00E+00 8.00E+02 0.00E+00 3.71E-01 0.00E+00 2.09E+05 0.00E+00 0.00E+00 0.00E+00 0.00E+00
  30    45.00    1.820  274.4  7.60E-06 4.20E+00 8.00E+02 0.00E+00 2.44E-01 0.00E+00 2.09E+05 0.00E+00 0.00E+00 0.00E+00 0.00E+00
  31    50.00    0.987  278.0  4.02E-06 2.50E+00 8.00E+02 0.00E+00 1.66E-01 0.00E+00 2.09E+05 0.00E+00 0.00E+00 0.00E+00 0.00E+00
  32    70.00    0.071  217.4  2.55E-07 4.00E-01 8.00E+02 0.00E+00 1.50E-01 0.00E+00 2.09E+05 0.00E+00 0.00E+00 0.00E+00 0.00E+00
  33   100.00    0.000  191.2  1.26E-10 4.00E-01 4.73E+02 0.00E+00 1.20E-01 0.00E+00 1.60E+05 0.00E+00 0.00E+00 0.00E+00 0.00E+00
1
  ATMOSPHERIC PROFILES

   I      Z       P       T     CFC-11   CFC-12   CFC-13   CFC-14   CFC-22   CFC-113  CFC-114  CFC-115  CLONO2    HNO4    CHCL2F 
                                 CCL4     N2O5  
         (KM)    (MB)    (K)  (                                 ATM CM/KM                                                     )
   1     0.00 1010.000  288.0  1.32E-05 2.27E-05 9.45E-14 9.45E-14 5.67E-06 1.79E-06 1.13E-06 9.45E-14 5.43E-07 4.10E-08 9.45E-14
                               1.23E-05 2.29E-11
   2     1.00  896.000  282.5  1.20E-05 2.05E-05 8.54E-14 8.54E-14 5.12E-06 1.62E-06 1.03E-06 8.54E-14 4.38E-07 1.82E-07 8.54E-14
                               1.11E-05 8.15E-11
   3     2.00  792.900  277.1  1.08E-05 1.85E-05 7.71E-14 7.71E-14 4.62E-06 1.46E-06 9.25E-07 7.71E-14 3.47E-07 2.96E-07 7.71E-14
                               1.00E-05 1.28E-10
   4     3.00  700.000  271.7  9.72E-06 1.67E-05 6.94E-14 6.94E-14 4.15E-06 1.32E-06 8.33E-07 6.94E-14 2.69E-07 3.84E-07 6.94E-14
                               9.02E-06 1.65E-10
   5     4.00  616.000  266.3  8.72E-06 1.50E-05 6.23E-14 6.23E-14 3.73E-06 1.18E-06 7.48E-07 6.23E-14 2.03E-07 4.51E-07 6.23E-14
                               8.10E-06 1.93E-10
   6     5.00  541.000  260.9  7.82E-06 1.34E-05 5.59E-14 5.59E-14 3.34E-06 1.06E-06 6.70E-07 5.59E-14 1.54E-07 1.01E-06 5.59E-14
                               7.25E-06 2.02E-10
   7     6.00  474.000  253.9  7.04E-06 1.21E-05 5.03E-14 5.03E-14 3.00E-06 9.55E-07 6.03E-07 5.03E-14 1.13E-07 1.46E-06 5.03E-14
                               6.51E-06 2.07E-10
   8     7.00  413.000  246.9  6.31E-06 1.08E-05 4.51E-14 4.51E-14 2.69E-06 8.56E-07 5.41E-07 4.51E-14 7.86E-08 1.80E-06 4.51E-14
                               5.83E-06 2.09E-10
   9     8.00  359.000  240.0  5.64E-06 9.67E-06 4.03E-14 4.03E-14 2.41E-06 7.66E-07 4.84E-07 4.03E-14 5.00E-08 2.05E-06 4.03E-14
                               5.20E-06 2.08E-10
  10     9.00  310.800  233.0  5.02E-06 8.62E-06 3.59E-14 3.59E-14 2.14E-06 6.82E-07 4.31E-07 3.59E-14 4.34E-08 1.76E-06 3.59E-14
                               4.64E-06 2.07E-10
  11    10.00  267.700  226.0  4.45E-06 7.64E-06 3.19E-14 3.19E-14 1.90E-06 6.05E-07 3.83E-07 3.19E-14 3.75E-08 1.51E-06 3.19E-14
                               4.12E-06 2.03E-10
  12    11.00  230.000  226.0  3.82E-06 6.56E-06 2.74E-14 2.74E-14 1.63E-06 5.19E-07 3.29E-07 2.74E-14 3.13E-08 1.25E-06 2.74E-14
                               3.54E-06 1.91E-10
  13    12.00  197.700  226.0  3.28E-06 5.63E-06 2.36E-14 2.36E-14 1.40E-06 4.45E-07 2.83E-07 2.36E-14 2.62E-08 1.03E-06 2.36E-14
                               3.04E-06 1.78E-10
  14    13.00  170.000  226.0  2.74E-06 4.77E-06 2.03E-14 2.03E-14 1.19E-06 3.76E-07 2.41E-07 2.03E-14 1.62E-07 1.15E-06 2.03E-14
                               2.53E-06 8.93E-09
  15    14.00  146.000  226.0  2.28E-06 4.04E-06 1.74E-14 1.74E-14 1.02E-06 3.17E-07 2.04E-07 1.74E-14 2.59E-07 1.21E-06 1.74E-14
                               2.11E-06 1.52E-08
  16    15.00  126.000  226.0  1.91E-06 3.43E-06 1.50E-14 1.50E-14 8.68E-07 2.68E-07 1.75E-07 1.50E-14 3.27E-07 1.24E-06 1.50E-14
                               1.76E-06 1.96E-08
  17    16.00  108.000  226.0  1.58E-06 2.90E-06 1.29E-14 1.29E-14 7.36E-07 2.25E-07 1.48E-07 1.29E-14 3.69E-07 1.22E-06 1.29E-14
                               1.45E-06 2.24E-08
  18    17.00   92.800  226.0  1.24E-06 2.38E-06 1.11E-14 1.11E-14 6.15E-07 1.83E-07 1.24E-07 1.11E-14 1.12E-06 1.58E-06 1.11E-14
                               1.13E-06 9.71E-08
  19    18.00   79.800  226.0  9.66E-07 1.95E-06 9.51E-15 9.51E-15 5.14E-07 1.48E-07 1.03E-07 9.51E-15 1.66E-06 1.81E-06 9.51E-15
                               8.62E-07 1.50E-07
  20    19.00   68.600  226.0  7.43E-07 1.59E-06 8.18E-15 8.18E-15 4.29E-07 1.19E-07 8.61E-08 8.18E-15 2.02E-06 1.94E-06 8.18E-15
                               6.49E-07 1.87E-07
  21    20.00   59.000  226.0  5.64E-07 1.29E-06 7.03E-15 7.03E-15 3.58E-07 9.56E-08 7.17E-08 7.03E-15 2.25E-06 2.00E-06 7.03E-15
                               4.80E-07 2.10E-07
  22    21.00   50.700  226.0  4.15E-07 1.03E-06 6.04E-15 6.04E-15 2.96E-07 7.48E-08 5.89E-08 6.04E-15 2.78E-06 2.13E-06 6.04E-15
                               3.45E-07 2.50E-07
  23    22.00   43.600  226.0  2.97E-07 8.21E-07 5.20E-15 5.20E-15 2.44E-07 5.80E-08 4.84E-08 5.20E-15 3.12E-06 2.17E-06 5.20E-15
                               2.40E-07 2.75E-07
  24    23.00   37.500  226.0  2.04E-07 6.48E-07 4.47E-15 4.47E-15 2.01E-07 4.44E-08 3.96E-08 4.47E-15 3.31E-06 2.17E-06 4.47E-15
                               1.57E-07 2.89E-07
  25    24.00   32.280  227.4  1.30E-07 5.05E-07 3.82E-15 3.82E-15 1.64E-07 3.33E-08 3.22E-08 3.82E-15 3.36E-06 2.11E-06 3.82E-15
                               9.18E-08 2.91E-07
  26    25.00   27.800  228.9  8.92E-08 3.89E-07 3.27E-15 3.27E-15 1.34E-07 2.49E-08 2.60E-08 3.27E-15 3.18E-06 1.90E-06 3.27E-15
                               6.16E-08 2.52E-07
  27    30.00   13.400  235.9  5.97E-09 9.00E-08 1.53E-15 1.53E-15 4.63E-08 4.46E-09 8.62E-09 1.53E-15 1.74E-06 7.80E-07 1.53E-15
                               2.69E-09 8.45E-08
  28    35.00    6.610  248.0  1.42E-10 1.53E-08 7.18E-16 7.18E-16 1.49E-08 5.15E-10 2.62E-09 7.18E-16 3.76E-07 1.05E-07 7.18E-16
                               2.84E-11 7.77E-09
  29    40.00    3.400  262.9  6.44E-13 2.12E-09 3.48E-16 3.48E-16 4.84E-09 4.28E-11 8.08E-10 3.48E-16 1.49E-08 3.47E-09 3.48E-16
                               1.38E-14 7.42E-11
  30    45.00    1.820  274.4  1.64E-14 3.81E-10 1.79E-16 1.79E-16 1.85E-09 5.74E-12 2.89E-10 1.79E-16 3.00E-10 1.56E-10 1.79E-16
                               9.96E-17 7.04E-13
  31    50.00    0.987  278.0  5.70E-16 8.15E-11 9.56E-17 9.56E-17 8.40E-10 9.47E-13 1.20E-10 9.56E-17 4.46E-12 7.30E-12 9.56E-17
                               1.05E-18 6.01E-15
  32    70.00    0.071  217.4  4.48E-21 3.44E-13 8.80E-18 8.80E-18 6.32E-11 1.55E-15 5.15E-12 8.80E-18 6.36E-19 2.82E-16 8.80E-18
                               8.69E-26 7.21E-23
  33   100.00    0.000  191.2  1.09E-30 8.66E-19 3.49E-20 3.49E-20 6.25E-14 4.58E-22 7.44E-16 3.49E-20 2.82E-35 1.16E-31 3.49E-20
                               1.78E-38 0.00E+00


 CASE 3A: GIVEN H1,H2=SPACE,ANGLE



 TANGENT PATH WITH H1 =     70.000 AND ANGLE =    180.000 INTERSECTS THE EARTH

          H2 HAS BEEN RESET TO 0.0 AND LEN TO 0



 SLANT PATH PARAMETERS IN STANDARD FORM

          H1      =     70.000 KM
          H2      =      0.000 KM
          ANGLE   =    180.000 DEG
          PHI     =      0.000 DEG
          HMIN    =      0.000 KM
          LEN     =          0
1CALCULATION OF THE REFRACTED PATH THROUGH THE ATMOSPHERE


  I       ALTITUDE        THETA  DRANGE    RANGE    DBETA     BETA     PHI     DBEND  BENDING    PBAR    TBAR   RHOBAR
      FROM       TO
      (KM)      (KM)      (DEG)    (KM)     (KM)    (DEG)    (DEG)    (DEG)    (DEG)    (DEG)    (MB)    (K)  (GM CM-3)

          H2 TO H1

  1    0.000    1.000    0.000    1.000    1.000    0.000    0.000  180.000    0.000    0.000  952.817  285.32 1.16E-03
  2    1.000    2.000    0.000    1.000    2.000    0.000    0.000  180.000    0.000    0.000  844.284  279.87 1.05E-03
  3    2.000    3.000    0.000    1.000    3.000    0.000    0.000  180.000    0.000    0.000  746.298  274.47 9.46E-04
  4    3.000    4.000    0.000    1.000    4.000    0.000    0.000  180.000    0.000    0.000  657.859  269.07 8.51E-04
  5    4.000    5.000    0.000    1.000    5.000    0.000    0.000  180.000    0.000    0.000  578.372  263.67 7.63E-04
  6    5.000    6.000    0.000    1.000    6.000    0.000    0.000  180.000    0.000    0.000  507.348  257.48 6.86E-04
  7    6.000    7.000    0.000    1.000    7.000    0.000    0.000  180.000    0.000    0.000  443.358  250.48 6.16E-04
  8    7.000    8.000    0.000    1.000    8.000    0.000    0.000  180.000    0.000    0.000  385.872  243.53 5.51E-04
  9    8.000    9.000    0.000    1.000    9.000    0.000    0.000  180.000    0.000    0.000  334.781  236.58 4.92E-04
 10    9.000   10.000    0.000    1.000   10.000    0.000    0.000  180.000    0.000    0.000  289.141  229.58 4.38E-04
 11   10.000   11.000    0.000    1.000   11.000    0.000    0.000  180.000    0.000    0.000  248.850  226.03 3.83E-04
 12   11.000   12.000    0.000    1.000   12.000    0.000    0.000  180.000    0.000    0.000  213.850  226.03 3.29E-04
 13   12.000   13.000    0.000    1.000   13.000    0.000    0.000  180.000    0.000    0.000  183.850  226.03 2.83E-04
 14   13.000   14.000    0.000    1.000   14.000    0.000    0.000  180.000    0.000    0.000  158.000  226.03 2.43E-04
 15   14.000   15.000    0.000    1.000   15.000    0.000    0.000  180.000    0.000    0.000  136.000  226.03 2.09E-04
 16   15.000   16.000    0.000    1.000   16.000    0.000    0.000  180.000    0.000    0.000  117.000  226.03 1.80E-04
 17   16.000   17.000    0.000    1.000   17.000    0.000    0.000  180.000    0.000    0.000  100.400  226.03 1.54E-04
 18   17.000   18.000    0.000    1.000   18.000    0.000    0.000  180.000    0.000    0.000   86.300  226.03 1.33E-04
 19   18.000   19.000    0.000    1.000   19.000    0.000    0.000  180.000    0.000    0.000   74.200  226.03 1.14E-04
 20   19.000   20.000    0.000    1.000   20.000    0.000    0.000  180.000    0.000    0.000   63.800  226.03 9.81E-05
 21   20.000   21.000    0.000    1.000   21.000    0.000    0.000  180.000    0.000    0.000   54.850  226.03 8.44E-05
 22   21.000   22.000    0.000    1.000   22.000    0.000    0.000  180.000    0.000    0.000   47.150  226.03 7.25E-05
 23   22.000   23.000    0.000    1.000   23.000    0.000    0.000  180.000    0.000    0.000   40.550  226.03 6.24E-05
 24   23.000   24.000    0.000    1.000   24.000    0.000    0.000  180.000    0.000    0.000   34.893  226.71 5.35E-05
 25   24.000   25.000    0.000    1.000   25.000    0.000    0.000  180.000    0.000    0.000   30.042  228.16 4.58E-05
 26   25.000   30.000    0.000    5.000   30.000    0.000    0.000  180.000    0.000    0.000   20.635  231.97 2.96E-05
 27   30.000   35.000    0.000    5.000   35.000    0.000    0.000  180.000    0.000    0.000   10.033  241.17 1.39E-05
 28   35.000   40.000    0.000    5.000   40.000    0.000    0.000  180.000    0.000    0.000    5.020  254.52 6.61E-06
 29   40.000   45.000    0.000    5.000   45.000    0.000    0.000  180.000    0.000    0.000    2.616  268.00 3.29E-06
 30   45.000   50.000    0.000    5.000   50.000    0.000    0.000  180.000    0.000    0.000    1.404  276.04 1.72E-06
 31   50.000   70.000    0.000   20.000   70.000    0.000    0.000  180.000    0.000    0.000    0.513  257.62 4.71E-07




1CUMULATIVE ABSORBER AMOUNTS FOR THE PATH FROM H1 TO Z

  J     Z        TBAR     HNO3        O3 UV      CNTMSLF1   CNTMSLF2    CNTMFRN      O2
       (KM)       (K)   (ATM CM)    (ATM CM)    (MOL CM-2)  (MOL CM-2)  (MOL CM-2)(MOL CM-2)

  1   50.000   257.62   0.000E+00   1.117E-03   2.630E+08   2.804E+08   5.387E+13   1.522E+02
  2   45.000   276.04   0.000E+00   3.352E-03   9.984E+08   6.881E+08   1.936E+14   2.912E+02
  3   40.000   268.00   0.000E+00   1.051E-02   3.743E+09   2.822E+09   7.112E+14   5.574E+02
  4   35.000   254.52   0.000E+00   2.939E-02   1.506E+10   1.586E+10   2.831E+15   1.094E+03
  5   30.000   241.17   0.000E+00   6.441E-02   6.590E+10   9.330E+10   1.229E+16   2.226E+03
  6   25.000   231.97   0.000E+00   1.217E-01   2.946E+11   5.001E+11   5.511E+16   4.671E+03
  7   24.000   228.16   0.000E+00   1.371E-01   3.968E+11   6.927E+11   7.446E+16   5.433E+03
  8   23.000   226.71   0.000E+00   1.534E-01   5.348E+11   9.583E+11   1.007E+17   6.327E+03
  9   22.000   226.03   0.000E+00   1.702E-01   7.205E+11   1.319E+12   1.363E+17   7.376E+03
 10   21.000   226.03   0.000E+00   1.870E-01   9.647E+11   1.794E+12   1.836E+17   8.603E+03
 11   20.000   226.03   0.000E+00   2.025E-01   1.281E+12   2.409E+12   2.464E+17   1.004E+04
 12   19.000   226.03   0.000E+00   2.168E-01   1.691E+12   3.206E+12   3.295E+17   1.173E+04
 13   18.000   226.03   0.000E+00   2.300E-01   2.210E+12   4.213E+12   4.380E+17   1.371E+04
 14   17.000   226.03   0.000E+00   2.417E-01   2.840E+12   5.439E+12   5.773E+17   1.604E+04
 15   16.000   226.03   0.000E+00   2.527E-01   3.635E+12   6.984E+12   7.594E+17   1.878E+04
 16   15.000   226.03   0.000E+00   2.634E-01   4.703E+12   9.059E+12   1.005E+18   2.203E+04
 17   14.000   226.03   0.000E+00   2.739E-01   6.145E+12   1.186E+13   1.337E+18   2.587E+04
 18   13.000   226.03   0.000E+00   2.842E-01   8.326E+12   1.610E+13   1.811E+18   3.041E+04
 19   12.000   226.03   0.000E+00   2.941E-01   1.286E+13   2.491E+13   2.604E+18   3.581E+04
 20   11.000   226.03   0.000E+00   3.031E-01   3.334E+13   6.472E+13   4.524E+18   4.226E+04
 21   10.000   226.03   0.000E+00   3.103E-01   2.558E+14   4.971E+14   1.170E+19   4.997E+04
 22    9.000   229.58   0.000E+00   3.158E-01   3.009E+15   5.577E+15   4.067E+19   5.905E+04
 23    8.000   236.58   0.000E+00   3.202E-01   3.545E+16   5.913E+16   1.524E+20   6.953E+04
 24    7.000   243.53   0.000E+00   3.238E-01   2.510E+17   3.733E+17   4.840E+20   8.160E+04
 25    6.000   250.48   0.000E+00   3.272E-01   1.104E+18   1.451E+18   1.227E+21   9.549E+04
 26    5.000   257.48   0.000E+00   3.303E-01   4.020E+18   4.573E+18   2.754E+21   1.115E+05
 27    4.000   263.67   0.000E+00   3.332E-01   1.301E+19   1.264E+19   5.746E+21   1.299E+05
 28    3.000   269.07   0.000E+00   3.360E-01   3.689E+19   3.051E+19   1.119E+22   1.511E+05
 29    2.000   274.47   0.000E+00   3.386E-01   9.544E+19   6.553E+19   2.065E+22   1.757E+05
 30    1.000   279.87   0.000E+00   3.412E-01   2.236E+20   1.229E+20   3.618E+22   2.042E+05
 31    0.000   285.32   0.000E+00   3.436E-01   5.023E+20   2.057E+20   6.142E+22   2.370E+05



1 J     Z       N2 CONT    MOL SCAT       AER 1       AER 2       AER 3       AER 4       CIRRUS
       (KM)

  1   50.000   3.494E-06   7.283E-03   0.000E+00   0.000E+00   0.000E+00   0.000E+00   0.000E+00
  2   45.000   1.187E-05   1.393E-02   0.000E+00   0.000E+00   0.000E+00   0.000E+00   0.000E+00
  3   40.000   4.265E-05   2.665E-02   0.000E+00   0.000E+00   0.000E+00   0.000E+00   0.000E+00
  4   35.000   1.679E-04   5.222E-02   0.000E+00   0.000E+00   0.000E+00   0.000E+00   0.000E+00
  5   30.000   7.224E-04   1.059E-01   0.000E+00   0.000E+00   0.000E+00   0.000E+00   0.000E+00
  6   25.000   3.251E-03   2.206E-01   0.000E+00   0.000E+00   0.000E+00   0.000E+00   0.000E+00
  7   24.000   4.406E-03   2.560E-01   0.000E+00   0.000E+00   0.000E+00   0.000E+00   0.000E+00
  8   23.000   5.983E-03   2.974E-01   0.000E+00   0.000E+00   0.000E+00   0.000E+00   0.000E+00
  9   22.000   8.126E-03   3.457E-01   0.000E+00   0.000E+00   0.000E+00   0.000E+00   0.000E+00
 10   21.000   1.102E-02   4.018E-01   0.000E+00   0.000E+00   0.000E+00   0.000E+00   0.000E+00
 11   20.000   1.495E-02   4.671E-01   0.000E+00   0.000E+00   0.000E+00   0.000E+00   0.000E+00
 12   19.000   2.025E-02   5.430E-01   0.000E+00   0.000E+00   0.000E+00   0.000E+00   0.000E+00
 13   18.000   2.743E-02   6.314E-01   0.000E+00   0.000E+00   0.000E+00   0.000E+00   0.000E+00
 14   17.000   3.713E-02   7.341E-01   0.000E+00   0.000E+00   0.000E+00   0.000E+00   0.000E+00
 15   16.000   5.027E-02   8.536E-01   0.000E+00   0.000E+00   0.000E+00   0.000E+00   0.000E+00
 16   15.000   6.811E-02   9.929E-01   0.000E+00   0.000E+00   0.000E+00   0.000E+00   0.000E+00
 17   14.000   9.222E-02   1.155E+00   0.000E+00   0.000E+00   0.000E+00   0.000E+00   0.000E+00
 18   13.000   1.248E-01   1.343E+00   0.000E+00   0.000E+00   0.000E+00   0.000E+00   0.000E+00
 19   12.000   1.688E-01   1.562E+00   0.000E+00   0.000E+00   0.000E+00   0.000E+00   0.000E+00
 20   11.000   2.284E-01   1.816E+00   0.000E+00   0.000E+00   0.000E+00   0.000E+00   0.000E+00
 21   10.000   3.091E-01   2.113E+00   0.000E+00   0.000E+00   0.000E+00   0.000E+00   0.000E+00
 22    9.000   4.148E-01   2.452E+00   0.000E+00   0.000E+00   0.000E+00   0.000E+00   0.000E+00
 23    8.000   5.482E-01   2.832E+00   0.000E+00   0.000E+00   0.000E+00   0.000E+00   0.000E+00
 24    7.000   7.154E-01   3.259E+00   0.000E+00   0.000E+00   0.000E+00   0.000E+00   0.000E+00
 25    6.000   9.241E-01   3.736E+00   0.000E+00   0.000E+00   0.000E+00   0.000E+00   0.000E+00
 26    5.000   1.183E+00   4.266E+00   0.000E+00   0.000E+00   0.000E+00   0.000E+00   0.000E+00
 27    4.000   1.503E+00   4.857E+00   0.000E+00   0.000E+00   0.000E+00   0.000E+00   0.000E+00
 28    3.000   1.902E+00   5.515E+00   0.000E+00   0.000E+00   0.000E+00   0.000E+00   0.000E+00
 29    2.000   2.394E+00   6.247E+00   0.000E+00   0.000E+00   0.000E+00   0.000E+00   0.000E+00
 30    1.000   3.001E+00   7.060E+00   0.000E+00   0.000E+00   0.000E+00   0.000E+00   0.000E+00
 31    0.000   3.744E+00   7.959E+00   0.000E+00   0.000E+00   0.000E+00   0.000E+00   0.000E+00



1  J    Z       H2O       O3        CO2       CO        CH4       N2O       O2        NH3       NO        NO2       SO2
      (KM)    (                                                      ATM CM                                             )

   1   50.00  3.40E-03  1.12E-03  5.82E-01  0.00E+00  1.17E-04  0.00E+00  1.52E+02  0.00E+00  0.00E+00  0.00E+00  0.00E+00
   2   45.00  6.89E-03  3.35E-03  1.11E+00  0.00E+00  2.54E-04  0.00E+00  2.91E+02  0.00E+00  0.00E+00  0.00E+00  0.00E+00
   3   40.00  1.36E-02  1.05E-02  2.13E+00  0.00E+00  6.49E-04  0.00E+00  5.57E+02  0.00E+00  0.00E+00  0.00E+00  0.00E+00
   4   35.00  2.73E-02  2.94E-02  4.17E+00  0.00E+00  1.80E-03  0.00E+00  1.09E+03  0.00E+00  0.00E+00  0.00E+00  0.00E+00
   5   30.00  5.61E-02  6.44E-02  8.47E+00  0.00E+00  4.97E-03  0.00E+00  2.21E+03  0.00E+00  0.00E+00  0.00E+00  0.00E+00
   6   25.00  1.17E-01  1.22E-01  1.76E+01  0.00E+00  1.30E-02  0.00E+00  4.61E+03  0.00E+00  0.00E+00  0.00E+00  0.00E+00
   7   24.00  1.36E-01  1.37E-01  2.05E+01  0.00E+00  1.57E-02  0.00E+00  5.35E+03  0.00E+00  0.00E+00  0.00E+00  0.00E+00
   8   23.00  1.58E-01  1.53E-01  2.38E+01  0.00E+00  1.92E-02  0.00E+00  6.21E+03  0.00E+00  0.00E+00  0.00E+00  0.00E+00
   9   22.00  1.83E-01  1.70E-01  2.76E+01  0.00E+00  2.35E-02  0.00E+00  7.22E+03  0.00E+00  0.00E+00  0.00E+00  0.00E+00
  10   21.00  2.12E-01  1.87E-01  3.21E+01  0.00E+00  2.88E-02  0.00E+00  8.39E+03  0.00E+00  0.00E+00  0.00E+00  0.00E+00
  11   20.00  2.45E-01  2.03E-01  3.73E+01  0.00E+00  3.55E-02  0.00E+00  9.76E+03  0.00E+00  0.00E+00  0.00E+00  0.00E+00
  12   19.00  2.83E-01  2.17E-01  4.34E+01  0.00E+00  4.40E-02  0.00E+00  1.13E+04  0.00E+00  0.00E+00  0.00E+00  0.00E+00
  13   18.00  3.25E-01  2.30E-01  5.05E+01  0.00E+00  5.45E-02  0.00E+00  1.32E+04  0.00E+00  0.00E+00  0.00E+00  0.00E+00
  14   17.00  3.71E-01  2.42E-01  5.87E+01  0.00E+00  6.75E-02  0.00E+00  1.53E+04  0.00E+00  0.00E+00  0.00E+00  0.00E+00
  15   16.00  4.23E-01  2.53E-01  6.82E+01  0.00E+00  8.32E-02  0.00E+00  1.78E+04  0.00E+00  0.00E+00  0.00E+00  0.00E+00
  16   15.00  4.84E-01  2.63E-01  7.94E+01  0.00E+00  1.02E-01  0.00E+00  2.07E+04  0.00E+00  0.00E+00  0.00E+00  0.00E+00
  17   14.00  5.54E-01  2.74E-01  9.23E+01  0.00E+00  1.25E-01  0.00E+00  2.41E+04  0.00E+00  0.00E+00  0.00E+00  0.00E+00
  18   13.00  6.41E-01  2.84E-01  1.07E+02  0.00E+00  1.52E-01  0.00E+00  2.80E+04  0.00E+00  0.00E+00  0.00E+00  0.00E+00
  19   12.00  7.64E-01  2.94E-01  1.25E+02  0.00E+00  1.85E-01  0.00E+00  3.26E+04  0.00E+00  0.00E+00  0.00E+00  0.00E+00
  20   11.00  1.02E+00  3.03E-01  1.45E+02  0.00E+00  2.24E-01  0.00E+00  3.79E+04  0.00E+00  0.00E+00  0.00E+00  0.00E+00
  21   10.00  1.84E+00  3.10E-01  1.69E+02  0.00E+00  2.70E-01  0.00E+00  4.41E+04  0.00E+00  0.00E+00  0.00E+00  0.00E+00
  22    9.00  4.74E+00  3.16E-01  1.96E+02  0.00E+00  3.24E-01  0.00E+00  5.12E+04  0.00E+00  0.00E+00  0.00E+00  0.00E+00
  23    8.00  1.47E+01  3.20E-01  2.26E+02  0.00E+00  3.86E-01  0.00E+00  5.92E+04  0.00E+00  0.00E+00  0.00E+00  0.00E+00
  24    7.00  4.12E+01  3.24E-01  2.61E+02  0.00E+00  4.56E-01  0.00E+00  6.81E+04  0.00E+00  0.00E+00  0.00E+00  0.00E+00
  25    6.00  9.45E+01  3.27E-01  2.99E+02  0.00E+00  5.35E-01  0.00E+00  7.80E+04  0.00E+00  0.00E+00  0.00E+00  0.00E+00
  26    5.00  1.93E+02  3.30E-01  3.41E+02  0.00E+00  6.24E-01  0.00E+00  8.91E+04  0.00E+00  0.00E+00  0.00E+00  0.00E+00
  27    4.00  3.67E+02  3.33E-01  3.88E+02  0.00E+00  7.24E-01  0.00E+00  1.01E+05  0.00E+00  0.00E+00  0.00E+00  0.00E+00
  28    3.00  6.51E+02  3.36E-01  4.41E+02  0.00E+00  8.35E-01  0.00E+00  1.15E+05  0.00E+00  0.00E+00  0.00E+00  0.00E+00
  29    2.00  1.10E+03  3.39E-01  4.99E+02  0.00E+00  9.60E-01  0.00E+00  1.30E+05  0.00E+00  0.00E+00  0.00E+00  0.00E+00
  30    1.00  1.76E+03  3.41E-01  5.64E+02  0.00E+00  1.10E+00  0.00E+00  1.47E+05  0.00E+00  0.00E+00  0.00E+00  0.00E+00
  31    0.00  2.73E+03  3.44E-01  6.36E+02  0.00E+00  1.25E+00  0.00E+00  1.66E+05  0.00E+00  0.00E+00  0.00E+00  0.00E+00



1  J    Z      CFC-11    CFC-12    CFC-13    CFC-14    CFC-22    CFC-113   CFC-114   CFC-115   CLONO2     HNO4     CHCL2F 
                CCL4      N2O5  
      (KM)    (                                                   ATM CM                                                )

   1   50.00  9.71E-16  2.97E-10  7.28E-16  7.28E-16  6.00E-09  2.95E-12  7.28E-10  7.28E-16  5.66E-12  1.44E-11  7.28E-16
              1.28E-18  6.60E-15
   2   45.00  2.45E-14  1.27E-09  1.39E-15  1.39E-15  1.24E-08  1.63E-11  1.69E-09  1.39E-15  3.57E-10  2.57E-10  1.39E-15
              1.09E-16  7.39E-13
   3   40.00  8.80E-13  6.34E-09  2.66E-15  2.66E-15  2.80E-08  1.09E-10  4.21E-09  2.66E-15  1.90E-08  5.60E-09  2.66E-15
              1.40E-14  7.96E-11
   4   35.00  1.32E-10  3.97E-08  5.22E-15  5.22E-15  7.26E-08  1.06E-09  1.19E-08  5.22E-15  5.78E-07  1.55E-07  5.22E-15
              1.86E-11  8.35E-09
   5   30.00  7.93E-09  2.51E-07  1.06E-14  1.06E-14  2.11E-07  1.02E-08  3.71E-08  1.06E-14  5.04E-06  1.84E-06  1.06E-14
              2.94E-09  1.69E-07
   6   25.00  1.62E-07  1.27E-06  2.20E-14  2.20E-14  6.23E-07  6.96E-08  1.16E-07  2.20E-14  1.70E-05  8.13E-06  2.20E-14
              9.70E-08  9.35E-07
   7   24.00  2.70E-07  1.72E-06  2.56E-14  2.56E-14  7.71E-07  9.85E-08  1.45E-07  2.56E-14  2.03E-05  1.01E-05  2.56E-14
              1.73E-07  1.21E-06
   8   23.00  4.34E-07  2.29E-06  2.97E-14  2.97E-14  9.53E-07  1.37E-07  1.81E-07  2.97E-14  2.36E-05  1.23E-05  2.97E-14
              2.94E-07  1.50E-06
   9   22.00  6.82E-07  3.02E-06  3.45E-14  3.45E-14  1.18E-06  1.88E-07  2.24E-07  3.45E-14  2.68E-05  1.44E-05  3.45E-14
              4.89E-07  1.78E-06
  10   21.00  1.03E-06  3.94E-06  4.02E-14  4.02E-14  1.44E-06  2.54E-07  2.78E-07  4.02E-14  2.98E-05  1.66E-05  4.02E-14
              7.78E-07  2.04E-06
  11   20.00  1.52E-06  5.10E-06  4.67E-14  4.67E-14  1.77E-06  3.39E-07  3.43E-07  4.67E-14  3.23E-05  1.87E-05  4.67E-14
              1.19E-06  2.27E-06
  12   19.00  2.17E-06  6.54E-06  5.43E-14  5.43E-14  2.16E-06  4.46E-07  4.22E-07  5.43E-14  3.44E-05  2.06E-05  5.43E-14
              1.75E-06  2.47E-06
  13   18.00  3.02E-06  8.30E-06  6.31E-14  6.31E-14  2.63E-06  5.79E-07  5.16E-07  6.31E-14  3.63E-05  2.25E-05  6.31E-14
              2.50E-06  2.64E-06
  14   17.00  4.12E-06  1.05E-05  7.34E-14  7.34E-14  3.20E-06  7.44E-07  6.29E-07  7.34E-14  3.76E-05  2.42E-05  7.34E-14
              3.49E-06  2.76E-06
  15   16.00  5.52E-06  1.31E-05  8.53E-14  8.53E-14  3.87E-06  9.47E-07  7.65E-07  8.53E-14  3.84E-05  2.56E-05  8.53E-14
              4.77E-06  2.82E-06
  16   15.00  7.26E-06  1.62E-05  9.92E-14  9.92E-14  4.67E-06  1.19E-06  9.26E-07  9.92E-14  3.87E-05  2.68E-05  9.92E-14
              6.37E-06  2.84E-06
  17   14.00  9.35E-06  2.00E-05  1.15E-13  1.15E-13  5.61E-06  1.48E-06  1.11E-06  1.15E-13  3.90E-05  2.81E-05  1.15E-13
              8.30E-06  2.86E-06
  18   13.00  1.19E-05  2.44E-05  1.34E-13  1.34E-13  6.71E-06  1.83E-06  1.34E-06  1.34E-13  3.92E-05  2.92E-05  1.34E-13
              1.06E-05  2.87E-06
  19   12.00  1.48E-05  2.95E-05  1.56E-13  1.56E-13  8.01E-06  2.24E-06  1.60E-06  1.56E-13  3.93E-05  3.03E-05  1.56E-13
              1.34E-05  2.88E-06
  20   11.00  1.84E-05  3.56E-05  1.82E-13  1.82E-13  9.52E-06  2.72E-06  1.90E-06  1.82E-13  3.94E-05  3.15E-05  1.82E-13
              1.67E-05  2.88E-06
  21   10.00  2.25E-05  4.27E-05  2.11E-13  2.11E-13  1.13E-05  3.28E-06  2.26E-06  2.11E-13  3.94E-05  3.28E-05  2.11E-13
              2.05E-05  2.88E-06
  22    9.00  2.72E-05  5.08E-05  2.45E-13  2.45E-13  1.33E-05  3.92E-06  2.67E-06  2.45E-13  3.94E-05  3.45E-05  2.45E-13
              2.49E-05  2.88E-06
  23    8.00  3.26E-05  6.00E-05  2.83E-13  2.83E-13  1.56E-05  4.65E-06  3.12E-06  2.83E-13  3.95E-05  3.64E-05  2.83E-13
              2.98E-05  2.88E-06
  24    7.00  3.85E-05  7.02E-05  3.26E-13  3.26E-13  1.81E-05  5.46E-06  3.63E-06  3.26E-13  3.96E-05  3.83E-05  3.26E-13
              3.53E-05  2.88E-06
  25    6.00  4.52E-05  8.16E-05  3.73E-13  3.73E-13  2.10E-05  6.36E-06  4.21E-06  3.73E-13  3.96E-05  3.99E-05  3.73E-13
              4.14E-05  2.88E-06
  26    5.00  5.26E-05  9.44E-05  4.26E-13  4.26E-13  2.41E-05  7.37E-06  4.84E-06  4.26E-13  3.98E-05  4.12E-05  4.26E-13
              4.83E-05  2.88E-06
  27    4.00  6.09E-05  1.09E-04  4.85E-13  4.85E-13  2.77E-05  8.49E-06  5.55E-06  4.85E-13  4.00E-05  4.19E-05  4.85E-13
              5.60E-05  2.88E-06
  28    3.00  7.01E-05  1.24E-04  5.51E-13  5.51E-13  3.16E-05  9.74E-06  6.34E-06  5.51E-13  4.02E-05  4.23E-05  5.51E-13
              6.45E-05  2.88E-06
  29    2.00  8.03E-05  1.42E-04  6.24E-13  6.24E-13  3.60E-05  1.11E-05  7.22E-06  6.24E-13  4.05E-05  4.27E-05  6.24E-13
              7.40E-05  2.88E-06
  30    1.00  9.17E-05  1.61E-04  7.06E-13  7.06E-13  4.08E-05  1.27E-05  8.19E-06  7.06E-13  4.09E-05  4.29E-05  7.06E-13
              8.46E-05  2.88E-06
  31    0.00  1.04E-04  1.83E-04  7.95E-13  7.95E-13  4.62E-05  1.44E-05  9.27E-06  7.95E-13  4.14E-05  4.30E-05  7.95E-13
              9.63E-05  2.88E-06


0SUMMARY OF THE GEOMETRY CALCULATION

          H1      =     70.000 KM
          H2      =      0.000 KM
          ANGLE   =    180.000 DEG
          RANGE   =     70.000 KM
          BETA    =      0.000 DEG
          PHI     =      0.000 DEG
          HMIN    =      0.000 KM
          BENDING =      0.000 DEG
          LEN     =          0




1EQUIVALENT SEA LEVEL TOTAL ABSORBER AMOUNTS

                 HNO3      O3 UV       CNTMSLF1    CNTMSLF2   CNTMFRN
               (ATM CM)   (ATM CM)     (MOL CM-2)  (MOL CM-2)  (MOL CM-2)  (MOL CM-2)

             0.000E+00   3.436E-01   5.023E+20   2.057E+20   6.142E+22


              N2 CONT    MOL SCAT       AER 1       AER 2       AER 3       AER 4     CIRRUS      MEAN RH
                                                                                                  (PRCNT)

             3.744E+00   7.959E+00   0.000E+00   0.000E+00   0.000E+00   0.000E+00   0.000E+00        0.00


                 H2O        O3          CO2         CO          CH4         N2O          O2
               (                                        ATM CM                            )

             2.727E+03   3.436E-01   6.363E+02   0.000E+00   1.251E+00   0.000E+00   1.662E+05

                 NH3        NO          NO2         SO2
                 (               ATM CM               )

             0.000E+00   0.000E+00   0.000E+00   0.000E+00

             CFC-11      CFC-12      CFC-13      CFC-14      CFC-22      CFC-113     CFC-114
                 (                                      ATM CM                            )

             1.043E-04   1.829E-04   7.954E-13   7.954E-13   4.624E-05   1.438E-05   9.270E-06

             CFC-115     CLONO2       HNO4       CHCL2F       CCL4        N2O5  
                 (                                      ATM CM                            )

             7.954E-13   4.138E-05   4.300E-05   7.954E-13   9.628E-05   2.879E-06
  iv           -5
  iv            0
1                                             RADIANCE(WATTS/CM2-STER-XXX)
0  FREQ   WAVLEN    PATH THERMAL      SURFACE EMISSION    SURFACE REFLECTED     TOTAL RADIANCE   INTEGRAL    TOTAL
  (CM-1) (MICRN)    (CM-1)   (MICRN)    (CM-1)   (MICRN)    (CM-1)   (MICRN)    (CM-1)   (MICRN)    (CM-1)   TRANS

      2. 4999.998  8.02E-10  3.21E-13  3.69E-10  1.48E-13  0.00E+00  0.00E+00  1.17E-09  4.69E-13  1.17E-09  0.32896
      4. 2500.000  2.82E-09  4.51E-12  1.04E-09  1.66E-12  0.00E+00  0.00E+00  3.86E-09  6.17E-12  8.89E-09  0.27640
      6. 1666.666  7.12E-09  2.56E-11  1.13E-09  4.07E-12  0.00E+00  0.00E+00  8.25E-09  2.97E-11  2.54E-08  0.15949
      8. 1250.000  1.33E-08  8.51E-11  1.05E-09  6.75E-12  0.00E+00  0.00E+00  1.43E-08  9.18E-11  5.41E-08  0.07697
     10. 1000.000  2.12E-08  2.12E-10  4.72E-10  4.72E-12  0.00E+00  0.00E+00  2.17E-08  2.17E-10  9.74E-08  0.02677
     12.  833.333  2.98E-08  4.29E-10  3.82E-11  5.50E-13  0.00E+00  0.00E+00  2.99E-08  4.30E-10  1.57E-07  0.00161
     14.  714.286  3.93E-08  7.71E-10  1.16E-13  2.27E-15  0.00E+00  0.00E+00  3.93E-08  7.71E-10  2.36E-07  0.00000
     16.  625.000  5.01E-08  1.28E-09  6.32E-16  1.62E-17  0.00E+00  0.00E+00  5.01E-08  1.28E-09  3.36E-07  0.00000
     18.  555.555  6.09E-08  1.97E-09  6.59E-16  2.14E-17  0.00E+00  0.00E+00  6.09E-08  1.97E-09  4.58E-07  0.00000
     20.  500.000  7.56E-08  3.02E-09  6.59E-16  2.64E-17  0.00E+00  0.00E+00  7.56E-08  3.02E-09  6.09E-07  0.00000
     22.  454.545  9.34E-08  4.52E-09  4.01E-22  1.94E-23  0.00E+00  0.00E+00  9.34E-08  4.52E-09  7.96E-07  0.00000
     24.  416.667  1.08E-07  6.20E-09  2.26E-21  1.30E-22  0.00E+00  0.00E+00  1.08E-07  6.20E-09  1.01E-06  0.00000
     26.  384.615  1.24E-07  8.41E-09  2.11E-21  1.43E-22  0.00E+00  0.00E+00  1.24E-07  8.41E-09  1.26E-06  0.00000
     28.  357.143  1.48E-07  1.16E-08  5.98E-25  4.69E-26  0.00E+00  0.00E+00  1.48E-07  1.16E-08  1.56E-06  0.00000
     30.  333.333  1.67E-07  1.51E-08  3.44E-25  3.10E-26  0.00E+00  0.00E+00  1.67E-07  1.51E-08  1.89E-06  0.00000
     32.  312.500  1.83E-07  1.88E-08  2.88E-34  2.95E-35  0.00E+00  0.00E+00  1.83E-07  1.88E-08  2.26E-06  0.00000
     34.  294.118  2.04E-07  2.36E-08  0.00E+00  0.00E+00  0.00E+00  0.00E+00  2.04E-07  2.36E-08  2.66E-06  0.00000
     36.  277.778  2.23E-07  2.89E-08  0.00E+00  0.00E+00  0.00E+00  0.00E+00  2.23E-07  2.89E-08  3.11E-06  0.00000
     38.  263.158  2.42E-07  3.50E-08  0.00E+00  0.00E+00  0.00E+00  0.00E+00  2.42E-07  3.50E-08  3.59E-06  0.00000
     40.  250.000  2.69E-07  4.30E-08  0.00E+00  0.00E+00  0.00E+00  0.00E+00  2.69E-07  4.30E-08  4.13E-06  0.00000
     42.  238.095  3.02E-07  5.34E-08  0.00E+00  0.00E+00  0.00E+00  0.00E+00  3.02E-07  5.34E-08  4.74E-06  0.00000
     44.  227.273  3.34E-07  6.48E-08  0.00E+00  0.00E+00  0.00E+00  0.00E+00  3.34E-07  6.48E-08  5.41E-06  0.00000
     46.  217.391  3.59E-07  7.59E-08  0.00E+00  0.00E+00  0.00E+00  0.00E+00  3.59E-07  7.59E-08  6.12E-06  0.00000
     48.  208.333  3.85E-07  8.87E-08  0.00E+00  0.00E+00  0.00E+00  0.00E+00  3.85E-07  8.87E-08  6.89E-06  0.00000
     50.  200.000  4.21E-07  1.05E-07  0.00E+00  0.00E+00  0.00E+00  0.00E+00  4.21E-07  1.05E-07  7.74E-06  0.00000
     52.  192.308  4.47E-07  1.21E-07  0.00E+00  0.00E+00  0.00E+00  0.00E+00  4.47E-07  1.21E-07  8.63E-06  0.00000
     54.  185.185  4.67E-07  1.36E-07  0.00E+00  0.00E+00  0.00E+00  0.00E+00  4.67E-07  1.36E-07  9.56E-06  0.00000
     56.  178.571  4.94E-07  1.55E-07  0.00E+00  0.00E+00  0.00E+00  0.00E+00  4.94E-07  1.55E-07  1.06E-05  0.00000
     58.  172.414  5.28E-07  1.78E-07  0.00E+00  0.00E+00  0.00E+00  0.00E+00  5.28E-07  1.78E-07  1.16E-05  0.00000
     60.  166.667  5.67E-07  2.04E-07  0.00E+00  0.00E+00  0.00E+00  0.00E+00  5.67E-07  2.04E-07  1.27E-05  0.00000
     62.  161.290  6.02E-07  2.31E-07  0.00E+00  0.00E+00  0.00E+00  0.00E+00  6.02E-07  2.31E-07  1.39E-05  0.00000
     64.  156.250  6.38E-07  2.61E-07  0.00E+00  0.00E+00  0.00E+00  0.00E+00  6.38E-07  2.61E-07  1.52E-05  0.00000
     66.  151.515  6.83E-07  2.98E-07  0.00E+00  0.00E+00  0.00E+00  0.00E+00  6.83E-07  2.98E-07  1.66E-05  0.00000
     68.  147.059  7.15E-07  3.30E-07  0.00E+00  0.00E+00  0.00E+00  0.00E+00  7.15E-07  3.30E-07  1.80E-05  0.00000
     70.  142.857  7.49E-07  3.67E-07  0.00E+00  0.00E+00  0.00E+00  0.00E+00  7.49E-07  3.67E-07  1.95E-05  0.00000
     72.  138.889  7.80E-07  4.04E-07  0.00E+00  0.00E+00  0.00E+00  0.00E+00  7.80E-07  4.04E-07  2.11E-05  0.00000
     74.  135.135  8.12E-07  4.45E-07  0.00E+00  0.00E+00  0.00E+00  0.00E+00  8.12E-07  4.45E-07  2.27E-05  0.00000
     76.  131.579  8.55E-07  4.94E-07  0.00E+00  0.00E+00  0.00E+00  0.00E+00  8.55E-07  4.94E-07  2.44E-05  0.00000
     78.  128.205  8.95E-07  5.45E-07  0.00E+00  0.00E+00  0.00E+00  0.00E+00  8.95E-07  5.45E-07  2.62E-05  0.00000
     80.  125.000  9.33E-07  5.97E-07  0.00E+00  0.00E+00  0.00E+00  0.00E+00  9.33E-07  5.97E-07  2.81E-05  0.00000
     82.  121.951  9.80E-07  6.59E-07  0.00E+00  0.00E+00  0.00E+00  0.00E+00  9.80E-07  6.59E-07  3.00E-05  0.00000
     84.  119.048  1.03E-06  7.29E-07  0.00E+00  0.00E+00  0.00E+00  0.00E+00  1.03E-06  7.29E-07  3.21E-05  0.00000
     86.  116.279  1.07E-06  7.91E-07  0.00E+00  0.00E+00  0.00E+00  0.00E+00  1.07E-06  7.91E-07  3.42E-05  0.00000
     88.  113.636  1.10E-06  8.50E-07  0.00E+00  0.00E+00  0.00E+00  0.00E+00  1.10E-06  8.50E-07  3.64E-05  0.00000
     90.  111.111  1.14E-06  9.21E-07  0.00E+00  0.00E+00  0.00E+00  0.00E+00  1.14E-06  9.21E-07  3.87E-05  0.00000
     92.  108.696  1.18E-06  9.99E-07  0.00E+00  0.00E+00  0.00E+00  0.00E+00  1.18E-06  9.99E-07  4.11E-05  0.00000
     94.  106.383  1.23E-06  1.09E-06  0.00E+00  0.00E+00  0.00E+00  0.00E+00  1.23E-06  1.09E-06  4.35E-05  0.00000
     96.  104.167  1.28E-06  1.18E-06  0.00E+00  0.00E+00  0.00E+00  0.00E+00  1.28E-06  1.18E-06  4.61E-05  0.00000
     98.  102.041  1.32E-06  1.27E-06  0.00E+00  0.00E+00  0.00E+00  0.00E+00  1.32E-06  1.27E-06  4.87E-05  0.00000
    100.  100.000  1.36E-06  1.36E-06  0.00E+00  0.00E+00  0.00E+00  0.00E+00  1.36E-06  1.36E-06  5.14E-05  0.00000
  iv          105
1                                             RADIANCE(WATTS/CM2-STER-XXX)
0  FREQ   WAVLEN    PATH THERMAL      SURFACE EMISSION    SURFACE REFLECTED     TOTAL RADIANCE   INTEGRAL    TOTAL
  (CM-1) (MICRN)    (CM-1)   (MICRN)    (CM-1)   (MICRN)    (CM-1)   (MICRN)    (CM-1)   (MICRN)    (CM-1)   TRANS

    102.   98.039  1.40E-06  1.46E-06  0.00E+00  0.00E+00  0.00E+00  0.00E+00  1.40E-06  1.46E-06  5.42E-05  0.00000
    104.   96.154  1.45E-06  1.57E-06  0.00E+00  0.00E+00  0.00E+00  0.00E+00  1.45E-06  1.57E-06  5.71E-05  0.00000
    106.   94.340  1.50E-06  1.68E-06  0.00E+00  0.00E+00  0.00E+00  0.00E+00  1.50E-06  1.68E-06  6.01E-05  0.00000
    108.   92.593  1.56E-06  1.82E-06  0.00E+00  0.00E+00  0.00E+00  0.00E+00  1.56E-06  1.82E-06  6.32E-05  0.00000
    110.   90.909  1.61E-06  1.94E-06  0.00E+00  0.00E+00  0.00E+00  0.00E+00  1.61E-06  1.94E-06  6.65E-05  0.00000
    112.   89.286  1.65E-06  2.08E-06  0.00E+00  0.00E+00  0.00E+00  0.00E+00  1.65E-06  2.08E-06  6.98E-05  0.00000
    114.   87.719  1.74E-06  2.26E-06  0.00E+00  0.00E+00  0.00E+00  0.00E+00  1.74E-06  2.26E-06  7.32E-05  0.00000
    116.   86.207  1.78E-06  2.40E-06  0.00E+00  0.00E+00  0.00E+00  0.00E+00  1.78E-06  2.40E-06  7.68E-05  0.00000
    118.   84.746  1.80E-06  2.51E-06  0.00E+00  0.00E+00  0.00E+00  0.00E+00  1.80E-06  2.51E-06  8.04E-05  0.00000
    120.   83.333  1.83E-06  2.63E-06  0.00E+00  0.00E+00  0.00E+00  0.00E+00  1.83E-06  2.63E-06  8.41E-05  0.00000
    122.   81.967  1.87E-06  2.78E-06  0.00E+00  0.00E+00  0.00E+00  0.00E+00  1.87E-06  2.78E-06  8.78E-05  0.00000
    124.   80.645  1.93E-06  2.97E-06  0.00E+00  0.00E+00  0.00E+00  0.00E+00  1.93E-06  2.97E-06  9.17E-05  0.00000
    126.   79.365  1.97E-06  3.13E-06  0.00E+00  0.00E+00  0.00E+00  0.00E+00  1.97E-06  3.13E-06  9.56E-05  0.00000
    128.   78.125  2.03E-06  3.32E-06  0.00E+00  0.00E+00  0.00E+00  0.00E+00  2.03E-06  3.32E-06  9.97E-05  0.00000
    130.   76.923  2.09E-06  3.52E-06  0.00E+00  0.00E+00  0.00E+00  0.00E+00  2.09E-06  3.52E-06  1.04E-04  0.00000
    132.   75.758  2.12E-06  3.69E-06  0.00E+00  0.00E+00  0.00E+00  0.00E+00  2.12E-06  3.69E-06  1.08E-04  0.00000
    134.   74.627  2.18E-06  3.91E-06  0.00E+00  0.00E+00  0.00E+00  0.00E+00  2.18E-06  3.91E-06  1.12E-04  0.00000
    136.   73.529  2.25E-06  4.17E-06  0.00E+00  0.00E+00  0.00E+00  0.00E+00  2.25E-06  4.17E-06  1.17E-04  0.00000
    138.   72.464  2.27E-06  4.33E-06  0.00E+00  0.00E+00  0.00E+00  0.00E+00  2.27E-06  4.33E-06  1.21E-04  0.00000
    140.   71.429  2.31E-06  4.53E-06  0.00E+00  0.00E+00  0.00E+00  0.00E+00  2.31E-06  4.53E-06  1.26E-04  0.00000
    142.   70.423  2.40E-06  4.85E-06  0.00E+00  0.00E+00  0.00E+00  0.00E+00  2.40E-06  4.85E-06  1.31E-04  0.00000
    144.   69.444  2.50E-06  5.17E-06  0.00E+00  0.00E+00  0.00E+00  0.00E+00  2.50E-06  5.17E-06  1.36E-04  0.00000
    146.   68.493  2.53E-06  5.39E-06  0.00E+00  0.00E+00  0.00E+00  0.00E+00  2.53E-06  5.39E-06  1.41E-04  0.00000
    148.   67.568  2.53E-06  5.53E-06  0.00E+00  0.00E+00  0.00E+00  0.00E+00  2.53E-06  5.53E-06  1.46E-04  0.00000
    150.   66.667  2.55E-06  5.74E-06  0.00E+00  0.00E+00  0.00E+00  0.00E+00  2.55E-06  5.74E-06  1.51E-04  0.00000
    152.   65.789  2.60E-06  6.00E-06  0.00E+00  0.00E+00  0.00E+00  0.00E+00  2.60E-06  6.00E-06  1.56E-04  0.00000
    154.   64.935  2.66E-06  6.31E-06  0.00E+00  0.00E+00  0.00E+00  0.00E+00  2.66E-06  6.31E-06  1.62E-04  0.00000
    156.   64.103  2.72E-06  6.63E-06  0.00E+00  0.00E+00  0.00E+00  0.00E+00  2.72E-06  6.63E-06  1.67E-04  0.00000
    158.   63.291  2.78E-06  6.93E-06  0.00E+00  0.00E+00  0.00E+00  0.00E+00  2.78E-06  6.93E-06  1.73E-04  0.00000
    160.   62.500  2.88E-06  7.37E-06  0.00E+00  0.00E+00  0.00E+00  0.00E+00  2.88E-06  7.37E-06  1.78E-04  0.00000
    162.   61.728  2.97E-06  7.79E-06  0.00E+00  0.00E+00  0.00E+00  0.00E+00  2.97E-06  7.79E-06  1.84E-04  0.00000
    164.   60.976  3.03E-06  8.14E-06  0.00E+00  0.00E+00  0.00E+00  0.00E+00  3.03E-06  8.14E-06  1.90E-04  0.00000
    166.   60.241  3.02E-06  8.31E-06  0.00E+00  0.00E+00  0.00E+00  0.00E+00  3.02E-06  8.31E-06  1.96E-04  0.00000
    168.   59.524  3.02E-06  8.54E-06  0.00E+00  0.00E+00  0.00E+00  0.00E+00  3.02E-06  8.54E-06  2.02E-04  0.00000
    170.   58.824  3.05E-06  8.82E-06  0.00E+00  0.00E+00  0.00E+00  0.00E+00  3.05E-06  8.82E-06  2.09E-04  0.00000
    172.   58.140  3.10E-06  9.17E-06  0.00E+00  0.00E+00  0.00E+00  0.00E+00  3.10E-06  9.17E-06  2.15E-04  0.00000
    174.   57.471  3.16E-06  9.58E-06  0.00E+00  0.00E+00  0.00E+00  0.00E+00  3.16E-06  9.58E-06  2.21E-04  0.00000
    176.   56.818  3.21E-06  9.93E-06  0.00E+00  0.00E+00  0.00E+00  0.00E+00  3.21E-06  9.93E-06  2.28E-04  0.00000
    178.   56.180  3.26E-06  1.03E-05  0.00E+00  0.00E+00  0.00E+00  0.00E+00  3.26E-06  1.03E-05  2.34E-04  0.00000
    180.   55.556  3.35E-06  1.09E-05  0.00E+00  0.00E+00  0.00E+00  0.00E+00  3.35E-06  1.09E-05  2.41E-04  0.00000
    182.   54.945  3.42E-06  1.13E-05  0.00E+00  0.00E+00  0.00E+00  0.00E+00  3.42E-06  1.13E-05  2.48E-04  0.00000
    184.   54.348  3.54E-06  1.20E-05  0.00E+00  0.00E+00  0.00E+00  0.00E+00  3.54E-06  1.20E-05  2.55E-04  0.00000
    186.   53.763  3.59E-06  1.24E-05  0.00E+00  0.00E+00  0.00E+00  0.00E+00  3.59E-06  1.24E-05  2.62E-04  0.00000
    188.   53.191  3.56E-06  1.26E-05  0.00E+00  0.00E+00  0.00E+00  0.00E+00  3.56E-06  1.26E-05  2.69E-04  0.00000
    190.   52.632  3.67E-06  1.32E-05  0.00E+00  0.00E+00  0.00E+00  0.00E+00  3.67E-06  1.32E-05  2.76E-04  0.00000
    192.   52.083  3.74E-06  1.38E-05  0.00E+00  0.00E+00  0.00E+00  0.00E+00  3.74E-06  1.38E-05  2.84E-04  0.00000
    194.   51.546  3.72E-06  1.40E-05  0.00E+00  0.00E+00  0.00E+00  0.00E+00  3.72E-06  1.40E-05  2.91E-04  0.00000
    196.   51.020  3.78E-06  1.45E-05  0.00E+00  0.00E+00  0.00E+00  0.00E+00  3.78E-06  1.45E-05  2.99E-04  0.00000
    198.   50.505  3.84E-06  1.51E-05  0.00E+00  0.00E+00  0.00E+00  0.00E+00  3.84E-06  1.51E-05  3.06E-04  0.00000
    200.   50.000  3.84E-06  1.54E-05  0.00E+00  0.00E+00  0.00E+00  0.00E+00  3.84E-06  1.54E-05  3.14E-04  0.00000
  iv          205
1                                             RADIANCE(WATTS/CM2-STER-XXX)
0  FREQ   WAVLEN    PATH THERMAL      SURFACE EMISSION    SURFACE REFLECTED     TOTAL RADIANCE   INTEGRAL    TOTAL
  (CM-1) (MICRN)    (CM-1)   (MICRN)    (CM-1)   (MICRN)    (CM-1)   (MICRN)    (CM-1)   (MICRN)    (CM-1)   TRANS

    202.   49.505  3.83E-06  1.56E-05  0.00E+00  0.00E+00  0.00E+00  0.00E+00  3.83E-06  1.56E-05  3.22E-04  0.00000
    204.   49.020  3.90E-06  1.62E-05  0.00E+00  0.00E+00  0.00E+00  0.00E+00  3.90E-06  1.62E-05  3.30E-04  0.00000
    206.   48.544  3.96E-06  1.68E-05  0.00E+00  0.00E+00  0.00E+00  0.00E+00  3.96E-06  1.68E-05  3.38E-04  0.00000
    208.   48.077  3.98E-06  1.72E-05  0.00E+00  0.00E+00  0.00E+00  0.00E+00  3.98E-06  1.72E-05  3.45E-04  0.00000
    210.   47.619  4.07E-06  1.80E-05  0.00E+00  0.00E+00  0.00E+00  0.00E+00  4.07E-06  1.80E-05  3.54E-04  0.00000
    212.   47.170  4.16E-06  1.87E-05  0.00E+00  0.00E+00  0.00E+00  0.00E+00  4.16E-06  1.87E-05  3.62E-04  0.00000
    214.   46.729  4.17E-06  1.91E-05  0.00E+00  0.00E+00  0.00E+00  0.00E+00  4.17E-06  1.91E-05  3.70E-04  0.00000
    216.   46.296  4.33E-06  2.02E-05  0.00E+00  0.00E+00  0.00E+00  0.00E+00  4.33E-06  2.02E-05  3.79E-04  0.00000
    218.   45.872  4.45E-06  2.12E-05  0.00E+00  0.00E+00  0.00E+00  0.00E+00  4.45E-06  2.12E-05  3.88E-04  0.00000
    220.   45.455  4.39E-06  2.12E-05  0.00E+00  0.00E+00  0.00E+00  0.00E+00  4.39E-06  2.12E-05  3.97E-04  0.00000
    222.   45.045  4.31E-06  2.12E-05  0.00E+00  0.00E+00  0.00E+00  0.00E+00  4.31E-06  2.12E-05  4.05E-04  0.00000
    224.   44.643  4.36E-06  2.19E-05  0.00E+00  0.00E+00  0.00E+00  0.00E+00  4.36E-06  2.19E-05  4.14E-04  0.00000
    226.   44.248  4.37E-06  2.23E-05  0.00E+00  0.00E+00  0.00E+00  0.00E+00  4.37E-06  2.23E-05  4.23E-04  0.00000
    228.   43.860  4.42E-06  2.30E-05  0.00E+00  0.00E+00  0.00E+00  0.00E+00  4.42E-06  2.30E-05  4.32E-04  0.00000
    230.   43.478  4.58E-06  2.42E-05  0.00E+00  0.00E+00  0.00E+00  0.00E+00  4.58E-06  2.42E-05  4.41E-04  0.00000
    232.   43.103  4.69E-06  2.53E-05  0.00E+00  0.00E+00  0.00E+00  0.00E+00  4.69E-06  2.53E-05  4.50E-04  0.00000
    234.   42.735  4.84E-06  2.65E-05  0.00E+00  0.00E+00  0.00E+00  0.00E+00  4.84E-06  2.65E-05  4.60E-04  0.00000
    236.   42.373  4.98E-06  2.77E-05  0.00E+00  0.00E+00  0.00E+00  0.00E+00  4.98E-06  2.77E-05  4.70E-04  0.00000
    238.   42.017  5.05E-06  2.86E-05  0.00E+00  0.00E+00  0.00E+00  0.00E+00  5.05E-06  2.86E-05  4.80E-04  0.00000
    240.   41.667  5.09E-06  2.93E-05  0.00E+00  0.00E+00  0.00E+00  0.00E+00  5.09E-06  2.93E-05  4.90E-04  0.00000
    242.   41.322  5.06E-06  2.96E-05  0.00E+00  0.00E+00  0.00E+00  0.00E+00  5.06E-06  2.96E-05  5.00E-04  0.00000
    244.   40.984  4.90E-06  2.92E-05  0.00E+00  0.00E+00  0.00E+00  0.00E+00  4.90E-06  2.92E-05  5.10E-04  0.00000
    246.   40.650  4.78E-06  2.89E-05  0.00E+00  0.00E+00  0.00E+00  0.00E+00  4.78E-06  2.89E-05  5.19E-04  0.00000
    248.   40.323  4.86E-06  2.99E-05  0.00E+00  0.00E+00  0.00E+00  0.00E+00  4.86E-06  2.99E-05  5.29E-04  0.00000
    250.   40.000  5.02E-06  3.14E-05  0.00E+00  0.00E+00  0.00E+00  0.00E+00  5.02E-06  3.14E-05  5.39E-04  0.00000
    252.   39.683  5.01E-06  3.18E-05  0.00E+00  0.00E+00  0.00E+00  0.00E+00  5.01E-06  3.18E-05  5.49E-04  0.00000
    254.   39.370  5.00E-06  3.22E-05  0.00E+00  0.00E+00  0.00E+00  0.00E+00  5.00E-06  3.22E-05  5.59E-04  0.00000
    256.   39.063  5.18E-06  3.40E-05  0.00E+00  0.00E+00  0.00E+00  0.00E+00  5.18E-06  3.40E-05  5.70E-04  0.00000
    258.   38.760  5.42E-06  3.61E-05  0.00E+00  0.00E+00  0.00E+00  0.00E+00  5.42E-06  3.61E-05  5.80E-04  0.00000
    260.   38.462  5.57E-06  3.77E-05  0.00E+00  0.00E+00  0.00E+00  0.00E+00  5.57E-06  3.77E-05  5.92E-04  0.00000
    262.   38.168  5.61E-06  3.85E-05  0.00E+00  0.00E+00  0.00E+00  0.00E+00  5.61E-06  3.85E-05  6.03E-04  0.00000
    264.   37.879  5.56E-06  3.88E-05  0.00E+00  0.00E+00  0.00E+00  0.00E+00  5.56E-06  3.88E-05  6.14E-04  0.00000
    266.   37.594  5.45E-06  3.86E-05  0.00E+00  0.00E+00  0.00E+00  0.00E+00  5.45E-06  3.86E-05  6.25E-04  0.00000
    268.   37.313  5.62E-06  4.04E-05  0.00E+00  0.00E+00  0.00E+00  0.00E+00  5.62E-06  4.04E-05  6.36E-04  0.00000
    270.   37.037  5.82E-06  4.24E-05  0.00E+00  0.00E+00  0.00E+00  0.00E+00  5.82E-06  4.24E-05  6.48E-04  0.00000
    272.   36.765  5.83E-06  4.31E-05  0.00E+00  0.00E+00  0.00E+00  0.00E+00  5.83E-06  4.31E-05  6.59E-04  0.00000
    274.   36.496  5.75E-06  4.32E-05  0.00E+00  0.00E+00  0.00E+00  0.00E+00  5.75E-06  4.32E-05  6.71E-04  0.00000
    276.   36.232  5.53E-06  4.21E-05  0.00E+00  0.00E+00  0.00E+00  0.00E+00  5.53E-06  4.21E-05  6.82E-04  0.00000
    278.   35.971  5.41E-06  4.18E-05  0.00E+00  0.00E+00  0.00E+00  0.00E+00  5.41E-06  4.18E-05  6.93E-04  0.00000
    280.   35.714  5.44E-06  4.26E-05  0.00E+00  0.00E+00  0.00E+00  0.00E+00  5.44E-06  4.26E-05  7.04E-04  0.00000
    282.   35.461  5.53E-06  4.40E-05  0.00E+00  0.00E+00  0.00E+00  0.00E+00  5.53E-06  4.40E-05  7.15E-04  0.00000
    284.   35.211  5.81E-06  4.69E-05  0.00E+00  0.00E+00  0.00E+00  0.00E+00  5.81E-06  4.69E-05  7.26E-04  0.00000
    286.   34.965  6.02E-06  4.92E-05  0.00E+00  0.00E+00  0.00E+00  0.00E+00  6.02E-06  4.92E-05  7.38E-04  0.00000
    288.   34.722  5.88E-06  4.88E-05  0.00E+00  0.00E+00  0.00E+00  0.00E+00  5.88E-06  4.88E-05  7.50E-04  0.00000
    290.   34.483  5.81E-06  4.89E-05  0.00E+00  0.00E+00  0.00E+00  0.00E+00  5.81E-06  4.89E-05  7.62E-04  0.00000
    292.   34.247  6.17E-06  5.26E-05  0.00E+00  0.00E+00  0.00E+00  0.00E+00  6.17E-06  5.26E-05  7.74E-04  0.00000
    294.   34.014  6.39E-06  5.52E-05  0.00E+00  0.00E+00  0.00E+00  0.00E+00  6.39E-06  5.52E-05  7.87E-04  0.00000
    296.   33.784  6.38E-06  5.59E-05  0.00E+00  0.00E+00  0.00E+00  0.00E+00  6.38E-06  5.59E-05  8.00E-04  0.00000
    298.   33.557  6.28E-06  5.58E-05  0.00E+00  0.00E+00  0.00E+00  0.00E+00  6.28E-06  5.58E-05  8.12E-04  0.00000
    300.   33.333  6.13E-06  5.52E-05  0.00E+00  0.00E+00  0.00E+00  0.00E+00  6.13E-06  5.52E-05  8.24E-04  0.00000
  iv          305
1                                             RADIANCE(WATTS/CM2-STER-XXX)
0  FREQ   WAVLEN    PATH THERMAL      SURFACE EMISSION    SURFACE REFLECTED     TOTAL RADIANCE   INTEGRAL    TOTAL
  (CM-1) (MICRN)    (CM-1)   (MICRN)    (CM-1)   (MICRN)    (CM-1)   (MICRN)    (CM-1)   (MICRN)    (CM-1)   TRANS

    302.   33.113  5.89E-06  5.38E-05  0.00E+00  0.00E+00  0.00E+00  0.00E+00  5.89E-06  5.38E-05  8.36E-04  0.00000
    304.   32.895  6.01E-06  5.55E-05  0.00E+00  0.00E+00  0.00E+00  0.00E+00  6.01E-06  5.55E-05  8.48E-04  0.00000
    306.   32.680  6.42E-06  6.02E-05  0.00E+00  0.00E+00  0.00E+00  0.00E+00  6.42E-06  6.02E-05  8.61E-04  0.00000
    308.   32.468  6.63E-06  6.29E-05  0.00E+00  0.00E+00  0.00E+00  0.00E+00  6.63E-06  6.29E-05  8.74E-04  0.00000
    310.   32.258  6.73E-06  6.47E-05  0.00E+00  0.00E+00  0.00E+00  0.00E+00  6.73E-06  6.47E-05  8.88E-04  0.00000
    312.   32.051  6.79E-06  6.60E-05  0.00E+00  0.00E+00  0.00E+00  0.00E+00  6.79E-06  6.60E-05  9.01E-04  0.00000
    314.   31.847  6.57E-06  6.48E-05  0.00E+00  0.00E+00  0.00E+00  0.00E+00  6.57E-06  6.48E-05  9.15E-04  0.00000
    316.   31.646  6.59E-06  6.58E-05  0.00E+00  0.00E+00  0.00E+00  0.00E+00  6.59E-06  6.58E-05  9.28E-04  0.00000
    318.   31.447  6.94E-06  7.01E-05  0.00E+00  0.00E+00  0.00E+00  0.00E+00  6.94E-06  7.01E-05  9.42E-04  0.00000
    320.   31.250  6.92E-06  7.09E-05  0.00E+00  0.00E+00  0.00E+00  0.00E+00  6.92E-06  7.09E-05  9.55E-04  0.00000
    322.   31.056  6.60E-06  6.84E-05  0.00E+00  0.00E+00  0.00E+00  0.00E+00  6.60E-06  6.84E-05  9.69E-04  0.00000
    324.   30.864  6.38E-06  6.69E-05  0.00E+00  0.00E+00  0.00E+00  0.00E+00  6.38E-06  6.69E-05  9.81E-04  0.00000
    326.   30.675  6.49E-06  6.89E-05  0.00E+00  0.00E+00  0.00E+00  0.00E+00  6.49E-06  6.89E-05  9.94E-04  0.00000
    328.   30.488  6.47E-06  6.96E-05  0.00E+00  0.00E+00  0.00E+00  0.00E+00  6.47E-06  6.96E-05  1.01E-03  0.00000
    330.   30.303  6.90E-06  7.51E-05  0.00E+00  0.00E+00  0.00E+00  0.00E+00  6.90E-06  7.51E-05  1.02E-03  0.00000
    332.   30.120  7.14E-06  7.87E-05  0.00E+00  0.00E+00  0.00E+00  0.00E+00  7.14E-06  7.87E-05  1.04E-03  0.00000
    334.   29.940  6.81E-06  7.59E-05  0.00E+00  0.00E+00  0.00E+00  0.00E+00  6.81E-06  7.59E-05  1.05E-03  0.00000
    336.   29.762  6.75E-06  7.62E-05  0.00E+00  0.00E+00  0.00E+00  0.00E+00  6.75E-06  7.62E-05  1.06E-03  0.00000
    338.   29.586  7.21E-06  8.24E-05  0.00E+00  0.00E+00  0.00E+00  0.00E+00  7.21E-06  8.24E-05  1.08E-03  0.00000
    340.   29.412  7.09E-06  8.19E-05  5.18E-44  6.00E-43  0.00E+00  0.00E+00  7.09E-06  8.19E-05  1.09E-03  0.00000
    342.   29.240  7.04E-06  8.24E-05  5.61E-44  6.56E-43  0.00E+00  0.00E+00  7.04E-06  8.24E-05  1.11E-03  0.00000
    344.   29.070  7.27E-06  8.60E-05  4.20E-45  5.04E-44  0.00E+00  0.00E+00  7.27E-06  8.60E-05  1.12E-03  0.00000
    346.   28.902  7.39E-06  8.85E-05  0.00E+00  0.00E+00  0.00E+00  0.00E+00  7.39E-06  8.85E-05  1.13E-03  0.00000
    348.   28.736  7.21E-06  8.74E-05  0.00E+00  0.00E+00  0.00E+00  0.00E+00  7.21E-06  8.74E-05  1.15E-03  0.00000
    350.   28.571  6.82E-06  8.36E-05  0.00E+00  0.00E+00  0.00E+00  0.00E+00  6.82E-06  8.36E-05  1.16E-03  0.00000
    352.   28.409  6.78E-06  8.40E-05  0.00E+00  0.00E+00  0.00E+00  0.00E+00  6.78E-06  8.40E-05  1.18E-03  0.00000
    354.   28.249  6.85E-06  8.58E-05  0.00E+00  0.00E+00  0.00E+00  0.00E+00  6.85E-06  8.58E-05  1.19E-03  0.00000
    356.   28.090  6.91E-06  8.76E-05  0.00E+00  0.00E+00  0.00E+00  0.00E+00  6.91E-06  8.76E-05  1.20E-03  0.00000
    358.   27.933  7.12E-06  9.13E-05  4.94E-42  6.33E-41  0.00E+00  0.00E+00  7.12E-06  9.13E-05  1.22E-03  0.00000
    360.   27.778  7.73E-06  1.00E-04  3.02E-31  3.91E-30  0.00E+00  0.00E+00  7.73E-06  1.00E-04  1.23E-03  0.00000
    362.   27.624  8.02E-06  1.05E-04  4.01E-27  5.25E-26  0.00E+00  0.00E+00  8.02E-06  1.05E-04  1.25E-03  0.00000
    364.   27.473  8.14E-06  1.08E-04  1.24E-25  1.64E-24  0.00E+00  0.00E+00  8.14E-06  1.08E-04  1.27E-03  0.00000
    366.   27.322  8.23E-06  1.10E-04  2.81E-25  3.76E-24  0.00E+00  0.00E+00  8.23E-06  1.10E-04  1.28E-03  0.00000
    368.   27.174  7.86E-06  1.06E-04  8.64E-26  1.17E-24  0.00E+00  0.00E+00  7.86E-06  1.06E-04  1.30E-03  0.00000
    370.   27.027  7.53E-06  1.03E-04  6.06E-33  8.29E-32  0.00E+00  0.00E+00  7.53E-06  1.03E-04  1.31E-03  0.00000
    372.   26.882  7.80E-06  1.08E-04  2.95E-34  4.09E-33  0.00E+00  0.00E+00  7.80E-06  1.08E-04  1.33E-03  0.00000
    374.   26.738  7.36E-06  1.03E-04  7.14E-37  9.99E-36  0.00E+00  0.00E+00  7.36E-06  1.03E-04  1.34E-03  0.00000
    376.   26.596  7.34E-06  1.04E-04  8.24E-37  1.17E-35  0.00E+00  0.00E+00  7.34E-06  1.04E-04  1.36E-03  0.00000
    378.   26.455  8.02E-06  1.15E-04  8.75E-25  1.25E-23  0.00E+00  0.00E+00  8.02E-06  1.15E-04  1.37E-03  0.00000
    380.   26.316  8.39E-06  1.21E-04  9.39E-24  1.36E-22  0.00E+00  0.00E+00  8.39E-06  1.21E-04  1.39E-03  0.00000
    382.   26.178  8.32E-06  1.21E-04  9.34E-24  1.36E-22  0.00E+00  0.00E+00  8.32E-06  1.21E-04  1.41E-03  0.00000
    384.   26.042  7.67E-06  1.13E-04  8.48E-25  1.25E-23  0.00E+00  0.00E+00  7.67E-06  1.13E-04  1.42E-03  0.00000
    386.   25.907  7.72E-06  1.15E-04  3.56E-21  5.30E-20  0.00E+00  0.00E+00  7.72E-06  1.15E-04  1.44E-03  0.00000
    388.   25.773  8.53E-06  1.28E-04  2.37E-19  3.57E-18  0.00E+00  0.00E+00  8.53E-06  1.28E-04  1.46E-03  0.00000
    390.   25.641  8.80E-06  1.34E-04  4.92E-19  7.49E-18  0.00E+00  0.00E+00  8.80E-06  1.34E-04  1.47E-03  0.00000
    392.   25.510  8.62E-06  1.33E-04  1.92E-19  2.96E-18  0.00E+00  0.00E+00  8.62E-06  1.33E-04  1.49E-03  0.00000
    394.   25.381  7.99E-06  1.24E-04  2.29E-22  3.55E-21  0.00E+00  0.00E+00  7.99E-06  1.24E-04  1.51E-03  0.00000
    396.   25.253  7.44E-06  1.17E-04  1.75E-27  2.75E-26  0.00E+00  0.00E+00  7.44E-06  1.17E-04  1.52E-03  0.00000
    398.   25.126  7.31E-06  1.16E-04  5.48E-43  8.68E-42  0.00E+00  0.00E+00  7.31E-06  1.16E-04  1.54E-03  0.00000
    400.   25.000  7.84E-06  1.25E-04  1.40E-21  2.23E-20  0.00E+00  0.00E+00  7.84E-06  1.25E-04  1.55E-03  0.00000
  iv          405
1                                             RADIANCE(WATTS/CM2-STER-XXX)
0  FREQ   WAVLEN    PATH THERMAL      SURFACE EMISSION    SURFACE REFLECTED     TOTAL RADIANCE   INTEGRAL    TOTAL
  (CM-1) (MICRN)    (CM-1)   (MICRN)    (CM-1)   (MICRN)    (CM-1)   (MICRN)    (CM-1)   (MICRN)    (CM-1)   TRANS

    402.   24.876  8.77E-06  1.42E-04  1.22E-16  1.97E-15  0.00E+00  0.00E+00  8.77E-06  1.42E-04  1.57E-03  0.00000
    404.   24.752  9.12E-06  1.49E-04  1.85E-15  3.02E-14  0.00E+00  0.00E+00  9.12E-06  1.49E-04  1.59E-03  0.00000
    406.   24.631  9.23E-06  1.52E-04  4.61E-14  7.59E-13  0.00E+00  0.00E+00  9.23E-06  1.52E-04  1.61E-03  0.00000
    408.   24.510  9.39E-06  1.56E-04  1.59E-13  2.65E-12  0.00E+00  0.00E+00  9.39E-06  1.56E-04  1.62E-03  0.00000
    410.   24.390  9.43E-06  1.59E-04  1.97E-13  3.32E-12  0.00E+00  0.00E+00  9.43E-06  1.59E-04  1.64E-03  0.00000
    412.   24.272  9.42E-06  1.60E-04  1.22E-13  2.06E-12  0.00E+00  0.00E+00  9.42E-06  1.60E-04  1.66E-03  0.00000
    414.   24.155  9.23E-06  1.58E-04  2.34E-14  4.01E-13  0.00E+00  0.00E+00  9.23E-06  1.58E-04  1.68E-03  0.00000
    416.   24.038  8.65E-06  1.50E-04  2.03E-16  3.50E-15  0.00E+00  0.00E+00  8.65E-06  1.50E-04  1.70E-03  0.00000
    418.   23.923  7.68E-06  1.34E-04  1.81E-24  3.17E-23  0.00E+00  0.00E+00  7.68E-06  1.34E-04  1.71E-03  0.00000
    420.   23.810  7.72E-06  1.36E-04  5.90E-35  1.04E-33  0.00E+00  0.00E+00  7.72E-06  1.36E-04  1.73E-03  0.00000
    422.   23.697  8.38E-06  1.49E-04  4.91E-23  8.74E-22  0.00E+00  0.00E+00  8.38E-06  1.49E-04  1.75E-03  0.00000
    424.   23.585  8.57E-06  1.54E-04  1.30E-19  2.34E-18  0.00E+00  0.00E+00  8.57E-06  1.54E-04  1.76E-03  0.00000
    426.   23.474  8.88E-06  1.61E-04  2.00E-13  3.63E-12  0.00E+00  0.00E+00  8.88E-06  1.61E-04  1.78E-03  0.00000
    428.   23.364  9.47E-06  1.73E-04  9.88E-13  1.81E-11  0.00E+00  0.00E+00  9.47E-06  1.73E-04  1.80E-03  0.00000
    430.   23.256  9.26E-06  1.71E-04  6.74E-13  1.25E-11  0.00E+00  0.00E+00  9.26E-06  1.71E-04  1.82E-03  0.00000
    432.   23.148  9.21E-06  1.72E-04  1.47E-12  2.75E-11  0.00E+00  0.00E+00  9.21E-06  1.72E-04  1.84E-03  0.00000
    434.   23.041  9.43E-06  1.78E-04  1.43E-12  2.69E-11  0.00E+00  0.00E+00  9.43E-06  1.78E-04  1.85E-03  0.00000
    436.   22.936  9.24E-06  1.76E-04  1.27E-12  2.41E-11  0.00E+00  0.00E+00  9.24E-06  1.76E-04  1.87E-03  0.00000
    438.   22.831  9.70E-06  1.86E-04  8.68E-12  1.67E-10  0.00E+00  0.00E+00  9.70E-06  1.86E-04  1.89E-03  0.00000
    440.   22.727  9.44E-06  1.83E-04  6.89E-12  1.33E-10  0.00E+00  0.00E+00  9.44E-06  1.83E-04  1.91E-03  0.00000
    442.   22.624  8.53E-06  1.67E-04  3.55E-13  6.93E-12  0.00E+00  0.00E+00  8.53E-06  1.67E-04  1.93E-03  0.00000
    444.   22.523  8.89E-06  1.75E-04  2.38E-14  4.69E-13  0.00E+00  0.00E+00  8.89E-06  1.75E-04  1.95E-03  0.00000
    446.   22.422  9.34E-06  1.86E-04  1.71E-12  3.40E-11  0.00E+00  0.00E+00  9.34E-06  1.86E-04  1.97E-03  0.00000
    448.   22.321  9.75E-06  1.96E-04  6.40E-11  1.28E-09  0.00E+00  0.00E+00  9.75E-06  1.96E-04  1.98E-03  0.00001
    450.   22.222  9.97E-06  2.02E-04  6.88E-11  1.39E-09  0.00E+00  0.00E+00  9.97E-06  2.02E-04  2.00E-03  0.00001
    452.   22.124  9.42E-06  1.92E-04  5.07E-12  1.04E-10  0.00E+00  0.00E+00  9.42E-06  1.92E-04  2.02E-03  0.00000
    454.   22.026  9.37E-06  1.93E-04  1.27E-13  2.61E-12  0.00E+00  0.00E+00  9.37E-06  1.93E-04  2.04E-03  0.00000
    456.   21.930  8.81E-06  1.83E-04  6.21E-15  1.29E-13  0.00E+00  0.00E+00  8.81E-06  1.83E-04  2.06E-03  0.00000
    458.   21.834  8.30E-06  1.74E-04  1.71E-15  3.59E-14  0.00E+00  0.00E+00  8.30E-06  1.74E-04  2.08E-03  0.00000
    460.   21.739  9.29E-06  1.97E-04  7.12E-14  1.51E-12  0.00E+00  0.00E+00  9.29E-06  1.97E-04  2.09E-03  0.00000
    462.   21.645  9.96E-06  2.13E-04  2.54E-10  5.42E-09  0.00E+00  0.00E+00  9.96E-06  2.13E-04  2.11E-03  0.00002
    464.   21.552  1.04E-05  2.23E-04  1.33E-09  2.85E-08  0.00E+00  0.00E+00  1.04E-05  2.23E-04  2.14E-03  0.00010
    466.   21.459  1.01E-05  2.20E-04  1.07E-09  2.33E-08  0.00E+00  0.00E+00  1.01E-05  2.20E-04  2.16E-03  0.00008
    468.   21.368  9.62E-06  2.11E-04  6.81E-11  1.49E-09  0.00E+00  0.00E+00  9.62E-06  2.11E-04  2.18E-03  0.00001
    470.   21.277  9.46E-06  2.09E-04  4.15E-12  9.17E-11  0.00E+00  0.00E+00  9.46E-06  2.09E-04  2.19E-03  0.00000
    472.   21.186  8.59E-06  1.91E-04  8.66E-13  1.93E-11  0.00E+00  0.00E+00  8.59E-06  1.91E-04  2.21E-03  0.00000
    474.   21.097  9.12E-06  2.05E-04  2.99E-11  6.73E-10  0.00E+00  0.00E+00  9.12E-06  2.05E-04  2.23E-03  0.00000
    476.   21.008  1.02E-05  2.30E-04  1.95E-09  4.41E-08  0.00E+00  0.00E+00  1.02E-05  2.30E-04  2.25E-03  0.00015
    478.   20.921  1.06E-05  2.43E-04  9.69E-09  2.21E-07  0.00E+00  0.00E+00  1.06E-05  2.43E-04  2.27E-03  0.00075
    480.   20.833  1.05E-05  2.43E-04  8.35E-09  1.92E-07  0.00E+00  0.00E+00  1.05E-05  2.43E-04  2.29E-03  0.00065
    482.   20.747  9.80E-06  2.28E-04  1.28E-09  2.97E-08  0.00E+00  0.00E+00  9.80E-06  2.28E-04  2.31E-03  0.00010
    484.   20.661  9.19E-06  2.15E-04  9.16E-11  2.15E-09  0.00E+00  0.00E+00  9.19E-06  2.15E-04  2.33E-03  0.00001
    486.   20.576  9.95E-06  2.35E-04  3.92E-09  9.26E-08  0.00E+00  0.00E+00  9.96E-06  2.35E-04  2.35E-03  0.00030
    488.   20.492  1.07E-05  2.55E-04  2.09E-08  4.98E-07  0.00E+00  0.00E+00  1.07E-05  2.56E-04  2.37E-03  0.00161
    490.   20.408  1.05E-05  2.52E-04  1.66E-08  3.97E-07  0.00E+00  0.00E+00  1.05E-05  2.53E-04  2.39E-03  0.00127
    492.   20.325  9.77E-06  2.37E-04  2.20E-09  5.34E-08  0.00E+00  0.00E+00  9.77E-06  2.37E-04  2.41E-03  0.00017
    494.   20.243  1.04E-05  2.53E-04  2.46E-08  5.99E-07  0.00E+00  0.00E+00  1.04E-05  2.53E-04  2.43E-03  0.00188
    496.   20.161  1.10E-05  2.71E-04  8.83E-08  2.17E-06  0.00E+00  0.00E+00  1.11E-05  2.74E-04  2.46E-03  0.00676
    498.   20.080  1.11E-05  2.74E-04  9.14E-08  2.27E-06  0.00E+00  0.00E+00  1.12E-05  2.77E-04  2.48E-03  0.00700
    500.   20.000  1.04E-05  2.61E-04  2.84E-08  7.09E-07  0.00E+00  0.00E+00  1.05E-05  2.62E-04  2.50E-03  0.00217
  iv          505
1                                             RADIANCE(WATTS/CM2-STER-XXX)
0  FREQ   WAVLEN    PATH THERMAL      SURFACE EMISSION    SURFACE REFLECTED     TOTAL RADIANCE   INTEGRAL    TOTAL
  (CM-1) (MICRN)    (CM-1)   (MICRN)    (CM-1)   (MICRN)    (CM-1)   (MICRN)    (CM-1)   (MICRN)    (CM-1)   TRANS

    502.   19.920  9.43E-06  2.38E-04  1.03E-09  2.61E-08  0.00E+00  0.00E+00  9.43E-06  2.38E-04  2.52E-03  0.00008
    504.   19.841  9.74E-06  2.47E-04  1.12E-10  2.84E-09  0.00E+00  0.00E+00  9.74E-06  2.47E-04  2.54E-03  0.00001
    506.   19.763  9.54E-06  2.44E-04  1.88E-10  4.81E-09  0.00E+00  0.00E+00  9.54E-06  2.44E-04  2.56E-03  0.00001
    508.   19.685  9.89E-06  2.55E-04  5.73E-09  1.48E-07  0.00E+00  0.00E+00  9.89E-06  2.55E-04  2.58E-03  0.00044
    510.   19.608  1.05E-05  2.72E-04  9.15E-09  2.38E-07  0.00E+00  0.00E+00  1.05E-05  2.72E-04  2.60E-03  0.00070
    512.   19.531  1.06E-05  2.78E-04  3.73E-08  9.78E-07  0.00E+00  0.00E+00  1.06E-05  2.79E-04  2.62E-03  0.00283
    514.   19.455  1.06E-05  2.81E-04  3.71E-08  9.79E-07  0.00E+00  0.00E+00  1.07E-05  2.82E-04  2.64E-03  0.00282
    516.   19.380  9.62E-06  2.56E-04  2.88E-09  7.67E-08  0.00E+00  0.00E+00  9.62E-06  2.56E-04  2.66E-03  0.00022
    518.   19.305  9.06E-06  2.43E-04  3.81E-12  1.02E-10  0.00E+00  0.00E+00  9.06E-06  2.43E-04  2.68E-03  0.00000
    520.   19.231  9.66E-06  2.61E-04  7.60E-09  2.05E-07  0.00E+00  0.00E+00  9.66E-06  2.61E-04  2.70E-03  0.00058
    522.   19.157  1.07E-05  2.92E-04  3.77E-08  1.03E-06  0.00E+00  0.00E+00  1.08E-05  2.93E-04  2.72E-03  0.00286
    524.   19.084  1.03E-05  2.84E-04  2.50E-08  6.85E-07  0.00E+00  0.00E+00  1.04E-05  2.85E-04  2.74E-03  0.00189
    526.   19.011  9.68E-06  2.68E-04  1.29E-08  3.57E-07  0.00E+00  0.00E+00  9.70E-06  2.68E-04  2.76E-03  0.00098
    528.   18.939  1.07E-05  2.98E-04  1.24E-07  3.46E-06  0.00E+00  0.00E+00  1.08E-05  3.01E-04  2.78E-03  0.00937
    530.   18.868  1.11E-05  3.12E-04  4.28E-07  1.20E-05  0.00E+00  0.00E+00  1.15E-05  3.24E-04  2.80E-03  0.03232
    532.   18.797  1.11E-05  3.13E-04  5.26E-07  1.49E-05  0.00E+00  0.00E+00  1.16E-05  3.28E-04  2.83E-03  0.03968
    534.   18.727  1.09E-05  3.10E-04  2.54E-07  7.24E-06  0.00E+00  0.00E+00  1.11E-05  3.17E-04  2.85E-03  0.01914
    536.   18.657  1.04E-05  2.98E-04  1.09E-07  3.12E-06  0.00E+00  0.00E+00  1.05E-05  3.01E-04  2.87E-03  0.00820
    538.   18.587  1.08E-05  3.12E-04  3.54E-07  1.02E-05  0.00E+00  0.00E+00  1.11E-05  3.22E-04  2.89E-03  0.02666
    540.   18.519  1.08E-05  3.16E-04  3.84E-07  1.12E-05  0.00E+00  0.00E+00  1.12E-05  3.27E-04  2.91E-03  0.02895
    542.   18.450  1.08E-05  3.18E-04  2.32E-07  6.83E-06  0.00E+00  0.00E+00  1.11E-05  3.25E-04  2.94E-03  0.01750
    544.   18.382  1.03E-05  3.04E-04  1.52E-07  4.51E-06  0.00E+00  0.00E+00  1.04E-05  3.09E-04  2.96E-03  0.01148
    546.   18.315  9.51E-06  2.84E-04  9.35E-09  2.79E-07  0.00E+00  0.00E+00  9.52E-06  2.84E-04  2.98E-03  0.00070
    548.   18.248  1.01E-05  3.04E-04  4.81E-08  1.44E-06  0.00E+00  0.00E+00  1.02E-05  3.05E-04  3.00E-03  0.00362
    550.   18.182  1.05E-05  3.17E-04  1.03E-07  3.12E-06  0.00E+00  0.00E+00  1.06E-05  3.20E-04  3.02E-03  0.00777
    552.   18.116  1.08E-05  3.29E-04  3.44E-07  1.05E-05  0.00E+00  0.00E+00  1.11E-05  3.39E-04  3.04E-03  0.02584
    554.   18.051  1.07E-05  3.27E-04  3.29E-07  1.01E-05  0.00E+00  0.00E+00  1.10E-05  3.38E-04  3.06E-03  0.02471
    556.   17.986  1.06E-05  3.29E-04  3.99E-07  1.23E-05  0.00E+00  0.00E+00  1.10E-05  3.41E-04  3.08E-03  0.02996
    558.   17.921  1.08E-05  3.36E-04  7.90E-07  2.46E-05  0.00E+00  0.00E+00  1.16E-05  3.61E-04  3.11E-03  0.05935
    560.   17.857  1.07E-05  3.35E-04  1.13E-06  3.53E-05  0.00E+00  0.00E+00  1.18E-05  3.70E-04  3.13E-03  0.08458
    562.   17.794  1.05E-05  3.32E-04  7.85E-07  2.48E-05  0.00E+00  0.00E+00  1.13E-05  3.56E-04  3.15E-03  0.05902
    564.   17.730  1.06E-05  3.39E-04  3.33E-07  1.06E-05  0.00E+00  0.00E+00  1.10E-05  3.49E-04  3.17E-03  0.02504
    566.   17.668  1.04E-05  3.33E-04  2.15E-07  6.88E-06  0.00E+00  0.00E+00  1.06E-05  3.40E-04  3.20E-03  0.01613
    568.   17.606  9.61E-06  3.10E-04  1.92E-08  6.19E-07  0.00E+00  0.00E+00  9.63E-06  3.11E-04  3.21E-03  0.00144
    570.   17.544  9.90E-06  3.22E-04  3.43E-08  1.11E-06  0.00E+00  0.00E+00  9.94E-06  3.23E-04  3.23E-03  0.00257
    572.   17.483  1.06E-05  3.47E-04  3.27E-07  1.07E-05  0.00E+00  0.00E+00  1.09E-05  3.58E-04  3.26E-03  0.02461
    574.   17.422  1.05E-05  3.45E-04  4.53E-07  1.49E-05  0.00E+00  0.00E+00  1.09E-05  3.60E-04  3.28E-03  0.03406
    576.   17.361  9.86E-06  3.27E-04  1.27E-07  4.22E-06  0.00E+00  0.00E+00  9.98E-06  3.31E-04  3.30E-03  0.00956
    578.   17.301  1.01E-05  3.37E-04  1.61E-07  5.38E-06  0.00E+00  0.00E+00  1.03E-05  3.43E-04  3.32E-03  0.01210
    580.   17.241  9.79E-06  3.29E-04  1.09E-07  3.67E-06  0.00E+00  0.00E+00  9.90E-06  3.33E-04  3.34E-03  0.00820
    582.   17.182  9.59E-06  3.25E-04  7.29E-08  2.47E-06  0.00E+00  0.00E+00  9.66E-06  3.27E-04  3.36E-03  0.00548
    584.   17.123  9.69E-06  3.31E-04  1.16E-07  3.97E-06  0.00E+00  0.00E+00  9.81E-06  3.35E-04  3.38E-03  0.00876
    586.   17.065  9.39E-06  3.23E-04  2.23E-07  7.67E-06  0.00E+00  0.00E+00  9.62E-06  3.30E-04  3.40E-03  0.01682
    588.   17.007  9.32E-06  3.22E-04  3.66E-07  1.26E-05  0.00E+00  0.00E+00  9.68E-06  3.35E-04  3.42E-03  0.02753
    590.   16.949  8.89E-06  3.10E-04  1.38E-07  4.81E-06  0.00E+00  0.00E+00  9.03E-06  3.14E-04  3.43E-03  0.01041
    592.   16.892  8.45E-06  2.96E-04  7.17E-09  2.51E-07  0.00E+00  0.00E+00  8.46E-06  2.96E-04  3.45E-03  0.00054
    594.   16.835  8.18E-06  2.89E-04  3.91E-09  1.38E-07  0.00E+00  0.00E+00  8.18E-06  2.89E-04  3.47E-03  0.00029
    596.   16.779  7.74E-06  2.75E-04  1.33E-08  4.73E-07  0.00E+00  0.00E+00  7.76E-06  2.76E-04  3.48E-03  0.00100
    598.   16.722  7.96E-06  2.85E-04  4.42E-08  1.58E-06  0.00E+00  0.00E+00  8.01E-06  2.86E-04  3.50E-03  0.00334
    600.   16.667  8.39E-06  3.02E-04  4.70E-08  1.69E-06  0.00E+00  0.00E+00  8.43E-06  3.04E-04  3.52E-03  0.00354
  iv          605
1                                             RADIANCE(WATTS/CM2-STER-XXX)
0  FREQ   WAVLEN    PATH THERMAL      SURFACE EMISSION    SURFACE REFLECTED     TOTAL RADIANCE   INTEGRAL    TOTAL
  (CM-1) (MICRN)    (CM-1)   (MICRN)    (CM-1)   (MICRN)    (CM-1)   (MICRN)    (CM-1)   (MICRN)    (CM-1)   TRANS

    602.   16.611  8.08E-06  2.93E-04  4.91E-08  1.78E-06  0.00E+00  0.00E+00  8.13E-06  2.95E-04  3.53E-03  0.00371
    604.   16.556  7.78E-06  2.84E-04  3.90E-08  1.42E-06  0.00E+00  0.00E+00  7.82E-06  2.85E-04  3.55E-03  0.00294
    606.   16.502  7.58E-06  2.78E-04  3.29E-08  1.21E-06  0.00E+00  0.00E+00  7.61E-06  2.79E-04  3.56E-03  0.00249
    608.   16.447  7.49E-06  2.77E-04  3.65E-08  1.35E-06  0.00E+00  0.00E+00  7.52E-06  2.78E-04  3.58E-03  0.00276
    610.   16.393  7.69E-06  2.86E-04  4.61E-08  1.71E-06  0.00E+00  0.00E+00  7.73E-06  2.88E-04  3.59E-03  0.00349
    612.   16.340  7.71E-06  2.89E-04  4.44E-08  1.66E-06  0.00E+00  0.00E+00  7.76E-06  2.91E-04  3.61E-03  0.00336
    614.   16.287  7.24E-06  2.73E-04  1.46E-08  5.49E-07  0.00E+00  0.00E+00  7.25E-06  2.73E-04  3.62E-03  0.00110
    616.   16.234  6.74E-06  2.56E-04  2.26E-09  8.57E-08  0.00E+00  0.00E+00  6.75E-06  2.56E-04  3.64E-03  0.00017
    618.   16.181  6.73E-06  2.57E-04  7.65E-10  2.92E-08  0.00E+00  0.00E+00  6.73E-06  2.57E-04  3.65E-03  0.00006
    620.   16.129  6.99E-06  2.69E-04  3.31E-09  1.27E-07  0.00E+00  0.00E+00  6.99E-06  2.69E-04  3.66E-03  0.00025
    622.   16.077  6.92E-06  2.68E-04  6.65E-09  2.57E-07  0.00E+00  0.00E+00  6.92E-06  2.68E-04  3.68E-03  0.00051
    624.   16.026  6.61E-06  2.57E-04  4.13E-09  1.61E-07  0.00E+00  0.00E+00  6.61E-06  2.58E-04  3.69E-03  0.00031
    626.   15.974  6.36E-06  2.49E-04  7.15E-11  2.80E-09  0.00E+00  0.00E+00  6.36E-06  2.49E-04  3.70E-03  0.00001
    628.   15.924  6.19E-06  2.44E-04  4.82E-11  1.90E-09  0.00E+00  0.00E+00  6.19E-06  2.44E-04  3.72E-03  0.00000
    630.   15.873  6.09E-06  2.42E-04  3.22E-11  1.28E-09  0.00E+00  0.00E+00  6.09E-06  2.42E-04  3.73E-03  0.00000
    632.   15.823  6.01E-06  2.40E-04  2.77E-12  1.10E-10  0.00E+00  0.00E+00  6.01E-06  2.40E-04  3.74E-03  0.00000
    634.   15.773  5.97E-06  2.40E-04  3.35E-13  1.35E-11  0.00E+00  0.00E+00  5.97E-06  2.40E-04  3.75E-03  0.00000
    636.   15.723  5.96E-06  2.41E-04  3.98E-15  1.61E-13  0.00E+00  0.00E+00  5.96E-06  2.41E-04  3.76E-03  0.00000
    638.   15.674  5.96E-06  2.43E-04  1.22E-17  4.97E-16  0.00E+00  0.00E+00  5.96E-06  2.43E-04  3.78E-03  0.00000
    640.   15.625  5.98E-06  2.45E-04  7.01E-19  2.87E-17  0.00E+00  0.00E+00  5.98E-06  2.45E-04  3.79E-03  0.00000
    642.   15.576  6.03E-06  2.49E-04  3.26E-20  1.35E-18  0.00E+00  0.00E+00  6.03E-06  2.49E-04  3.80E-03  0.00000
    644.   15.528  6.10E-06  2.53E-04  2.53E-23  1.05E-21  0.00E+00  0.00E+00  6.10E-06  2.53E-04  3.81E-03  0.00000
    646.   15.480  6.19E-06  2.59E-04  2.15E-25  8.96E-24  0.00E+00  0.00E+00  6.19E-06  2.59E-04  3.83E-03  0.00000
    648.   15.432  6.55E-06  2.75E-04  3.61E-27  1.52E-25  0.00E+00  0.00E+00  6.55E-06  2.75E-04  3.84E-03  0.00000
    650.   15.385  6.58E-06  2.78E-04  3.47E-32  1.47E-30  0.00E+00  0.00E+00  6.58E-06  2.78E-04  3.85E-03  0.00000
    652.   15.337  6.29E-06  2.67E-04  1.08E-31  4.59E-30  0.00E+00  0.00E+00  6.29E-06  2.67E-04  3.86E-03  0.00000
    654.   15.291  6.17E-06  2.64E-04  1.18E-26  5.03E-25  0.00E+00  0.00E+00  6.17E-06  2.64E-04  3.88E-03  0.00000
    656.   15.244  6.16E-06  2.65E-04  1.18E-26  5.06E-25  0.00E+00  0.00E+00  6.16E-06  2.65E-04  3.89E-03  0.00000
    658.   15.198  6.20E-06  2.68E-04  1.03E-31  4.44E-30  0.00E+00  0.00E+00  6.20E-06  2.68E-04  3.90E-03  0.00000
    660.   15.152  6.16E-06  2.69E-04  9.66E-32  4.21E-30  0.00E+00  0.00E+00  6.16E-06  2.69E-04  3.91E-03  0.00000
    662.   15.106  6.39E-06  2.80E-04  8.36E-32  3.66E-30  0.00E+00  0.00E+00  6.39E-06  2.80E-04  3.93E-03  0.00000
    664.   15.060  6.40E-06  2.82E-04  0.00E+00  0.00E+00  0.00E+00  0.00E+00  6.40E-06  2.82E-04  3.94E-03  0.00000
    666.   15.015  6.97E-06  3.09E-04  0.00E+00  0.00E+00  0.00E+00  0.00E+00  6.97E-06  3.09E-04  3.95E-03  0.00000
    668.   14.970  8.14E-06  3.63E-04  0.00E+00  0.00E+00  0.00E+00  0.00E+00  8.14E-06  3.63E-04  3.97E-03  0.00000
    670.   14.925  7.20E-06  3.23E-04  0.00E+00  0.00E+00  0.00E+00  0.00E+00  7.20E-06  3.23E-04  3.98E-03  0.00000
    672.   14.881  6.26E-06  2.83E-04  3.67E-37  1.66E-35  0.00E+00  0.00E+00  6.26E-06  2.83E-04  4.00E-03  0.00000
    674.   14.837  6.12E-06  2.78E-04  1.30E-31  5.90E-30  0.00E+00  0.00E+00  6.12E-06  2.78E-04  4.01E-03  0.00000
    676.   14.793  6.03E-06  2.76E-04  3.89E-31  1.78E-29  0.00E+00  0.00E+00  6.03E-06  2.76E-04  4.02E-03  0.00000
    678.   14.749  6.09E-06  2.80E-04  1.30E-31  5.97E-30  0.00E+00  0.00E+00  6.09E-06  2.80E-04  4.03E-03  0.00000
    680.   14.706  6.06E-06  2.80E-04  1.96E-37  9.08E-36  0.00E+00  0.00E+00  6.06E-06  2.80E-04  4.04E-03  0.00000
    682.   14.663  6.01E-06  2.80E-04  2.99E-29  1.39E-27  0.00E+00  0.00E+00  6.01E-06  2.80E-04  4.06E-03  0.00000
    684.   14.620  5.87E-06  2.75E-04  1.02E-28  4.78E-27  0.00E+00  0.00E+00  5.87E-06  2.75E-04  4.07E-03  0.00000
    686.   14.577  5.84E-06  2.75E-04  6.80E-29  3.20E-27  0.00E+00  0.00E+00  5.84E-06  2.75E-04  4.08E-03  0.00000
    688.   14.535  5.82E-06  2.75E-04  2.58E-29  1.22E-27  0.00E+00  0.00E+00  5.82E-06  2.75E-04  4.09E-03  0.00000
    690.   14.493  5.75E-06  2.74E-04  3.88E-21  1.85E-19  0.00E+00  0.00E+00  5.75E-06  2.74E-04  4.10E-03  0.00000
    692.   14.451  5.53E-06  2.65E-04  1.91E-20  9.12E-19  0.00E+00  0.00E+00  5.53E-06  2.65E-04  4.11E-03  0.00000
    694.   14.409  5.47E-06  2.64E-04  3.55E-20  1.71E-18  0.00E+00  0.00E+00  5.47E-06  2.64E-04  4.13E-03  0.00000
    696.   14.368  5.41E-06  2.62E-04  1.39E-18  6.72E-17  0.00E+00  0.00E+00  5.41E-06  2.62E-04  4.14E-03  0.00000
    698.   14.327  5.33E-06  2.60E-04  1.67E-14  8.14E-13  0.00E+00  0.00E+00  5.33E-06  2.60E-04  4.15E-03  0.00000
    700.   14.286  5.25E-06  2.57E-04  5.18E-14  2.54E-12  0.00E+00  0.00E+00  5.25E-06  2.57E-04  4.16E-03  0.00000
  iv          705
1                                             RADIANCE(WATTS/CM2-STER-XXX)
0  FREQ   WAVLEN    PATH THERMAL      SURFACE EMISSION    SURFACE REFLECTED     TOTAL RADIANCE   INTEGRAL    TOTAL
  (CM-1) (MICRN)    (CM-1)   (MICRN)    (CM-1)   (MICRN)    (CM-1)   (MICRN)    (CM-1)   (MICRN)    (CM-1)   TRANS

    702.   14.245  5.28E-06  2.60E-04  2.38E-14  1.17E-12  0.00E+00  0.00E+00  5.28E-06  2.60E-04  4.17E-03  0.00000
    704.   14.205  5.33E-06  2.64E-04  7.10E-13  3.52E-11  0.00E+00  0.00E+00  5.33E-06  2.64E-04  4.18E-03  0.00000
    706.   14.164  5.41E-06  2.70E-04  1.05E-11  5.22E-10  0.00E+00  0.00E+00  5.41E-06  2.70E-04  4.19E-03  0.00000
    708.   14.124  5.50E-06  2.76E-04  2.09E-10  1.05E-08  0.00E+00  0.00E+00  5.50E-06  2.76E-04  4.20E-03  0.00002
    710.   14.085  5.59E-06  2.82E-04  1.47E-09  7.43E-08  0.00E+00  0.00E+00  5.60E-06  2.82E-04  4.21E-03  0.00012
    712.   14.045  5.78E-06  2.93E-04  3.56E-09  1.80E-07  0.00E+00  0.00E+00  5.78E-06  2.93E-04  4.22E-03  0.00029
    714.   14.006  5.94E-06  3.03E-04  6.59E-09  3.36E-07  0.00E+00  0.00E+00  5.94E-06  3.03E-04  4.23E-03  0.00053
    716.   13.966  5.98E-06  3.07E-04  1.17E-08  5.98E-07  0.00E+00  0.00E+00  5.99E-06  3.07E-04  4.25E-03  0.00095
    718.   13.928  5.63E-06  2.90E-04  5.25E-09  2.71E-07  0.00E+00  0.00E+00  5.64E-06  2.91E-04  4.26E-03  0.00043
    720.   13.889  5.51E-06  2.86E-04  1.40E-10  7.27E-09  0.00E+00  0.00E+00  5.52E-06  2.86E-04  4.27E-03  0.00001
    722.   13.850  6.09E-06  3.17E-04  4.47E-08  2.33E-06  0.00E+00  0.00E+00  6.13E-06  3.20E-04  4.28E-03  0.00365
    724.   13.812  6.58E-06  3.45E-04  1.89E-07  9.89E-06  0.00E+00  0.00E+00  6.76E-06  3.55E-04  4.30E-03  0.01545
    726.   13.774  6.84E-06  3.60E-04  3.60E-07  1.90E-05  0.00E+00  0.00E+00  7.20E-06  3.79E-04  4.31E-03  0.02952
    728.   13.736  6.71E-06  3.56E-04  2.14E-07  1.13E-05  0.00E+00  0.00E+00  6.92E-06  3.67E-04  4.32E-03  0.01753
    730.   13.699  6.40E-06  3.41E-04  8.33E-08  4.44E-06  0.00E+00  0.00E+00  6.49E-06  3.46E-04  4.34E-03  0.00685
    732.   13.661  6.36E-06  3.41E-04  9.79E-08  5.24E-06  0.00E+00  0.00E+00  6.45E-06  3.46E-04  4.35E-03  0.00807
    734.   13.624  6.42E-06  3.46E-04  1.30E-07  7.02E-06  0.00E+00  0.00E+00  6.55E-06  3.53E-04  4.36E-03  0.01076
    736.   13.587  6.43E-06  3.48E-04  1.39E-07  7.55E-06  0.00E+00  0.00E+00  6.57E-06  3.56E-04  4.38E-03  0.01153
    738.   13.550  6.39E-06  3.48E-04  1.10E-07  6.02E-06  0.00E+00  0.00E+00  6.50E-06  3.54E-04  4.39E-03  0.00916
    740.   13.514  6.13E-06  3.36E-04  5.26E-08  2.88E-06  0.00E+00  0.00E+00  6.18E-06  3.39E-04  4.40E-03  0.00437
    742.   13.477  6.23E-06  3.43E-04  1.95E-07  1.07E-05  0.00E+00  0.00E+00  6.42E-06  3.53E-04  4.41E-03  0.01623
    744.   13.441  6.90E-06  3.82E-04  4.82E-07  2.67E-05  0.00E+00  0.00E+00  7.38E-06  4.09E-04  4.43E-03  0.04026
    746.   13.405  7.02E-06  3.91E-04  8.15E-07  4.53E-05  0.00E+00  0.00E+00  7.84E-06  4.36E-04  4.44E-03  0.06816
    748.   13.369  7.03E-06  3.93E-04  1.02E-06  5.73E-05  0.00E+00  0.00E+00  8.05E-06  4.51E-04  4.46E-03  0.08581
    750.   13.333  6.97E-06  3.92E-04  1.31E-06  7.37E-05  0.00E+00  0.00E+00  8.28E-06  4.66E-04  4.48E-03  0.11009
    752.   13.298  7.05E-06  3.99E-04  1.47E-06  8.29E-05  0.00E+00  0.00E+00  8.51E-06  4.81E-04  4.49E-03  0.12342
    754.   13.263  7.31E-06  4.16E-04  1.22E-06  6.95E-05  0.00E+00  0.00E+00  8.53E-06  4.85E-04  4.51E-03  0.10323
    756.   13.228  7.11E-06  4.06E-04  1.60E-06  9.15E-05  0.00E+00  0.00E+00  8.71E-06  4.98E-04  4.53E-03  0.13556
    758.   13.193  6.33E-06  3.64E-04  3.01E-06  1.73E-04  0.00E+00  0.00E+00  9.34E-06  5.37E-04  4.55E-03  0.25537
    760.   13.158  5.91E-06  3.41E-04  4.00E-06  2.31E-04  0.00E+00  0.00E+00  9.90E-06  5.72E-04  4.57E-03  0.33966
    762.   13.123  5.53E-06  3.21E-04  4.65E-06  2.70E-04  0.00E+00  0.00E+00  1.02E-05  5.91E-04  4.59E-03  0.39634
    764.   13.089  5.09E-06  2.97E-04  5.30E-06  3.09E-04  0.00E+00  0.00E+00  1.04E-05  6.07E-04  4.61E-03  0.45248
    766.   13.055  5.00E-06  2.93E-04  5.54E-06  3.25E-04  0.00E+00  0.00E+00  1.05E-05  6.18E-04  4.63E-03  0.47435
    768.   13.021  5.38E-06  3.17E-04  5.10E-06  3.01E-04  0.00E+00  0.00E+00  1.05E-05  6.18E-04  4.65E-03  0.43732
    770.   12.987  5.43E-06  3.22E-04  5.03E-06  2.98E-04  0.00E+00  0.00E+00  1.05E-05  6.20E-04  4.67E-03  0.43247
    772.   12.953  4.44E-06  2.64E-04  6.34E-06  3.78E-04  0.00E+00  0.00E+00  1.08E-05  6.42E-04  4.69E-03  0.54624
    774.   12.920  4.54E-06  2.72E-04  6.22E-06  3.73E-04  0.00E+00  0.00E+00  1.08E-05  6.44E-04  4.71E-03  0.53743
    776.   12.887  5.72E-06  3.45E-04  4.64E-06  2.80E-04  0.00E+00  0.00E+00  1.04E-05  6.24E-04  4.73E-03  0.40207
    778.   12.853  5.31E-06  3.21E-04  5.15E-06  3.12E-04  0.00E+00  0.00E+00  1.05E-05  6.33E-04  4.76E-03  0.44730
    780.   12.821  4.24E-06  2.58E-04  6.54E-06  3.98E-04  0.00E+00  0.00E+00  1.08E-05  6.56E-04  4.78E-03  0.56986
    782.   12.788  4.17E-06  2.55E-04  6.54E-06  4.00E-04  0.00E+00  0.00E+00  1.07E-05  6.55E-04  4.80E-03  0.57054
    784.   12.755  5.30E-06  3.26E-04  5.01E-06  3.08E-04  0.00E+00  0.00E+00  1.03E-05  6.34E-04  4.82E-03  0.43821
    786.   12.723  4.30E-06  2.65E-04  6.38E-06  3.94E-04  0.00E+00  0.00E+00  1.07E-05  6.59E-04  4.84E-03  0.55968
    788.   12.690  3.29E-06  2.04E-04  7.64E-06  4.74E-04  0.00E+00  0.00E+00  1.09E-05  6.79E-04  4.86E-03  0.67186
    790.   12.658  3.87E-06  2.41E-04  6.57E-06  4.10E-04  0.00E+00  0.00E+00  1.04E-05  6.51E-04  4.88E-03  0.57926
    792.   12.626  5.29E-06  3.32E-04  4.26E-06  2.67E-04  0.00E+00  0.00E+00  9.55E-06  5.99E-04  4.90E-03  0.37656
    794.   12.594  5.83E-06  3.67E-04  4.04E-06  2.54E-04  0.00E+00  0.00E+00  9.86E-06  6.22E-04  4.92E-03  0.35779
    796.   12.563  5.88E-06  3.73E-04  4.08E-06  2.58E-04  0.00E+00  0.00E+00  9.96E-06  6.31E-04  4.94E-03  0.36261
    798.   12.531  6.03E-06  3.84E-04  3.77E-06  2.40E-04  0.00E+00  0.00E+00  9.80E-06  6.24E-04  4.96E-03  0.33622
    800.   12.500  4.83E-06  3.09E-04  5.30E-06  3.39E-04  0.00E+00  0.00E+00  1.01E-05  6.48E-04  4.98E-03  0.47363
  iv          805
1                                             RADIANCE(WATTS/CM2-STER-XXX)
0  FREQ   WAVLEN    PATH THERMAL      SURFACE EMISSION    SURFACE REFLECTED     TOTAL RADIANCE   INTEGRAL    TOTAL
  (CM-1) (MICRN)    (CM-1)   (MICRN)    (CM-1)   (MICRN)    (CM-1)   (MICRN)    (CM-1)   (MICRN)    (CM-1)   TRANS

    802.   12.469  4.20E-06  2.70E-04  6.24E-06  4.01E-04  0.00E+00  0.00E+00  1.04E-05  6.71E-04  5.00E-03  0.55851
    804.   12.438  4.71E-06  3.04E-04  5.54E-06  3.58E-04  0.00E+00  0.00E+00  1.03E-05  6.63E-04  5.02E-03  0.49783
    806.   12.407  4.04E-06  2.63E-04  6.36E-06  4.13E-04  0.00E+00  0.00E+00  1.04E-05  6.76E-04  5.04E-03  0.57267
    808.   12.376  4.27E-06  2.79E-04  6.04E-06  3.94E-04  0.00E+00  0.00E+00  1.03E-05  6.73E-04  5.06E-03  0.54532
    810.   12.346  3.38E-06  2.22E-04  7.13E-06  4.68E-04  0.00E+00  0.00E+00  1.05E-05  6.89E-04  5.09E-03  0.64556
    812.   12.315  3.18E-06  2.09E-04  7.37E-06  4.86E-04  0.00E+00  0.00E+00  1.05E-05  6.95E-04  5.11E-03  0.66894
    814.   12.285  4.17E-06  2.76E-04  6.13E-06  4.06E-04  0.00E+00  0.00E+00  1.03E-05  6.83E-04  5.13E-03  0.55844
    816.   12.255  3.58E-06  2.39E-04  6.82E-06  4.54E-04  0.00E+00  0.00E+00  1.04E-05  6.93E-04  5.15E-03  0.62316
    818.   12.225  2.65E-06  1.77E-04  7.94E-06  5.31E-04  0.00E+00  0.00E+00  1.06E-05  7.08E-04  5.17E-03  0.72727
    820.   12.195  2.55E-06  1.71E-04  8.04E-06  5.40E-04  0.00E+00  0.00E+00  1.06E-05  7.11E-04  5.19E-03  0.73802
    822.   12.165  2.51E-06  1.69E-04  8.06E-06  5.44E-04  0.00E+00  0.00E+00  1.06E-05  7.14E-04  5.21E-03  0.74197
    824.   12.136  2.78E-06  1.89E-04  7.68E-06  5.22E-04  0.00E+00  0.00E+00  1.05E-05  7.11E-04  5.23E-03  0.70981
    826.   12.107  3.30E-06  2.25E-04  7.03E-06  4.80E-04  0.00E+00  0.00E+00  1.03E-05  7.05E-04  5.25E-03  0.65156
    828.   12.077  3.59E-06  2.46E-04  6.64E-06  4.55E-04  0.00E+00  0.00E+00  1.02E-05  7.01E-04  5.27E-03  0.61718
    830.   12.048  2.67E-06  1.84E-04  7.72E-06  5.32E-04  0.00E+00  0.00E+00  1.04E-05  7.16E-04  5.29E-03  0.71973
    832.   12.019  2.28E-06  1.58E-04  8.17E-06  5.65E-04  0.00E+00  0.00E+00  1.05E-05  7.24E-04  5.32E-03  0.76345
    834.   11.990  2.33E-06  1.62E-04  8.09E-06  5.62E-04  0.00E+00  0.00E+00  1.04E-05  7.24E-04  5.34E-03  0.75787
    836.   11.962  2.46E-06  1.72E-04  7.90E-06  5.52E-04  0.00E+00  0.00E+00  1.04E-05  7.24E-04  5.36E-03  0.74256
    838.   11.933  2.69E-06  1.89E-04  7.57E-06  5.32E-04  0.00E+00  0.00E+00  1.03E-05  7.21E-04  5.38E-03  0.71379
    840.   11.905  3.39E-06  2.39E-04  6.67E-06  4.71E-04  0.00E+00  0.00E+00  1.01E-05  7.10E-04  5.40E-03  0.63120
    842.   11.876  2.85E-06  2.02E-04  7.30E-06  5.17E-04  0.00E+00  0.00E+00  1.01E-05  7.19E-04  5.42E-03  0.69223
    844.   11.848  2.26E-06  1.61E-04  7.96E-06  5.67E-04  0.00E+00  0.00E+00  1.02E-05  7.28E-04  5.44E-03  0.75723
    846.   11.820  2.17E-06  1.56E-04  8.03E-06  5.75E-04  0.00E+00  0.00E+00  1.02E-05  7.30E-04  5.46E-03  0.76612
    848.   11.792  2.48E-06  1.79E-04  7.61E-06  5.47E-04  0.00E+00  0.00E+00  1.01E-05  7.26E-04  5.48E-03  0.72825
    850.   11.765  3.45E-06  2.49E-04  6.35E-06  4.59E-04  0.00E+00  0.00E+00  9.80E-06  7.08E-04  5.50E-03  0.60945
    852.   11.737  4.33E-06  3.14E-04  5.22E-06  3.79E-04  0.00E+00  0.00E+00  9.56E-06  6.94E-04  5.52E-03  0.50323
    854.   11.710  3.84E-06  2.80E-04  5.87E-06  4.28E-04  0.00E+00  0.00E+00  9.71E-06  7.08E-04  5.54E-03  0.56737
    856.   11.682  2.67E-06  1.95E-04  7.28E-06  5.34E-04  0.00E+00  0.00E+00  9.95E-06  7.29E-04  5.56E-03  0.70599
    858.   11.655  2.08E-06  1.53E-04  7.97E-06  5.87E-04  0.00E+00  0.00E+00  1.01E-05  7.40E-04  5.58E-03  0.77488
    860.   11.628  2.08E-06  1.54E-04  7.95E-06  5.88E-04  0.00E+00  0.00E+00  1.00E-05  7.41E-04  5.60E-03  0.77491
    862.   11.601  1.93E-06  1.44E-04  8.08E-06  6.00E-04  0.00E+00  0.00E+00  1.00E-05  7.44E-04  5.62E-03  0.79047
    864.   11.574  2.38E-06  1.78E-04  7.50E-06  5.60E-04  0.00E+00  0.00E+00  9.88E-06  7.38E-04  5.64E-03  0.73607
    866.   11.547  2.38E-06  1.79E-04  7.47E-06  5.60E-04  0.00E+00  0.00E+00  9.85E-06  7.39E-04  5.66E-03  0.73557
    868.   11.521  1.86E-06  1.40E-04  8.06E-06  6.07E-04  0.00E+00  0.00E+00  9.92E-06  7.48E-04  5.68E-03  0.79619
    870.   11.494  2.26E-06  1.71E-04  7.51E-06  5.69E-04  0.00E+00  0.00E+00  9.78E-06  7.40E-04  5.70E-03  0.74458
    872.   11.468  2.29E-06  1.74E-04  7.45E-06  5.66E-04  0.00E+00  0.00E+00  9.74E-06  7.40E-04  5.72E-03  0.74049
    874.   11.442  1.82E-06  1.39E-04  8.00E-06  6.11E-04  0.00E+00  0.00E+00  9.82E-06  7.50E-04  5.74E-03  0.79839
    876.   11.416  1.81E-06  1.39E-04  7.98E-06  6.12E-04  0.00E+00  0.00E+00  9.79E-06  7.51E-04  5.75E-03  0.79823
    878.   11.390  2.16E-06  1.66E-04  7.52E-06  5.80E-04  0.00E+00  0.00E+00  9.68E-06  7.46E-04  5.77E-03  0.75514
    880.   11.364  2.25E-06  1.75E-04  7.37E-06  5.71E-04  0.00E+00  0.00E+00  9.62E-06  7.45E-04  5.79E-03  0.74215
    882.   11.338  2.16E-06  1.68E-04  7.45E-06  5.79E-04  0.00E+00  0.00E+00  9.61E-06  7.48E-04  5.81E-03  0.75269
    884.   11.312  2.33E-06  1.82E-04  7.21E-06  5.63E-04  0.00E+00  0.00E+00  9.54E-06  7.45E-04  5.83E-03  0.73103
    886.   11.287  2.37E-06  1.86E-04  7.09E-06  5.57E-04  0.00E+00  0.00E+00  9.46E-06  7.43E-04  5.85E-03  0.72116
    888.   11.261  2.50E-06  1.97E-04  6.91E-06  5.45E-04  0.00E+00  0.00E+00  9.41E-06  7.42E-04  5.87E-03  0.70540
    890.   11.236  2.18E-06  1.72E-04  7.31E-06  5.79E-04  0.00E+00  0.00E+00  9.48E-06  7.51E-04  5.89E-03  0.74851
    892.   11.211  1.80E-06  1.43E-04  7.71E-06  6.14E-04  0.00E+00  0.00E+00  9.51E-06  7.57E-04  5.91E-03  0.79272
    894.   11.186  1.60E-06  1.28E-04  7.91E-06  6.32E-04  0.00E+00  0.00E+00  9.51E-06  7.60E-04  5.93E-03  0.81546
    896.   11.161  1.65E-06  1.33E-04  7.82E-06  6.28E-04  0.00E+00  0.00E+00  9.47E-06  7.60E-04  5.95E-03  0.80875
    898.   11.136  1.70E-06  1.37E-04  7.73E-06  6.24E-04  0.00E+00  0.00E+00  9.43E-06  7.61E-04  5.96E-03  0.80290
    900.   11.111  1.58E-06  1.28E-04  7.83E-06  6.34E-04  0.00E+00  0.00E+00  9.41E-06  7.63E-04  5.98E-03  0.81584
  iv          905
1                                             RADIANCE(WATTS/CM2-STER-XXX)
0  FREQ   WAVLEN    PATH THERMAL      SURFACE EMISSION    SURFACE REFLECTED     TOTAL RADIANCE   INTEGRAL    TOTAL
  (CM-1) (MICRN)    (CM-1)   (MICRN)    (CM-1)   (MICRN)    (CM-1)   (MICRN)    (CM-1)   (MICRN)    (CM-1)   TRANS

    902.   11.086  1.55E-06  1.26E-04  7.84E-06  6.38E-04  0.00E+00  0.00E+00  9.38E-06  7.64E-04  6.00E-03  0.81947
    904.   11.062  1.64E-06  1.34E-04  7.70E-06  6.29E-04  0.00E+00  0.00E+00  9.33E-06  7.63E-04  6.02E-03  0.80751
    906.   11.038  1.86E-06  1.52E-04  7.41E-06  6.08E-04  0.00E+00  0.00E+00  9.26E-06  7.60E-04  6.04E-03  0.77968
    908.   11.013  2.26E-06  1.86E-04  6.86E-06  5.65E-04  0.00E+00  0.00E+00  9.11E-06  7.51E-04  6.06E-03  0.72416
    910.   10.989  2.15E-06  1.78E-04  6.94E-06  5.75E-04  0.00E+00  0.00E+00  9.09E-06  7.53E-04  6.08E-03  0.73614
    912.   10.965  1.63E-06  1.36E-04  7.56E-06  6.28E-04  0.00E+00  0.00E+00  9.19E-06  7.64E-04  6.09E-03  0.80371
    914.   10.941  1.66E-06  1.39E-04  7.48E-06  6.25E-04  0.00E+00  0.00E+00  9.14E-06  7.64E-04  6.11E-03  0.79860
    916.   10.917  1.61E-06  1.35E-04  7.51E-06  6.30E-04  0.00E+00  0.00E+00  9.11E-06  7.65E-04  6.13E-03  0.80420
    918.   10.893  1.67E-06  1.41E-04  7.39E-06  6.23E-04  0.00E+00  0.00E+00  9.07E-06  7.64E-04  6.15E-03  0.79474
    920.   10.870  1.82E-06  1.54E-04  7.17E-06  6.07E-04  0.00E+00  0.00E+00  8.99E-06  7.61E-04  6.17E-03  0.77400
    922.   10.846  2.17E-06  1.85E-04  6.69E-06  5.69E-04  0.00E+00  0.00E+00  8.86E-06  7.53E-04  6.18E-03  0.72441
    924.   10.823  2.09E-06  1.78E-04  6.76E-06  5.77E-04  0.00E+00  0.00E+00  8.84E-06  7.55E-04  6.20E-03  0.73424
    926.   10.799  1.83E-06  1.57E-04  7.03E-06  6.03E-04  0.00E+00  0.00E+00  8.87E-06  7.60E-04  6.22E-03  0.76713
    928.   10.776  1.54E-06  1.32E-04  7.37E-06  6.35E-04  0.00E+00  0.00E+00  8.90E-06  7.67E-04  6.24E-03  0.80646
    930.   10.753  1.54E-06  1.33E-04  7.32E-06  6.33E-04  0.00E+00  0.00E+00  8.86E-06  7.67E-04  6.26E-03  0.80436
    932.   10.730  1.49E-06  1.29E-04  7.35E-06  6.38E-04  0.00E+00  0.00E+00  8.84E-06  7.68E-04  6.27E-03  0.81029
    934.   10.707  1.48E-06  1.29E-04  7.33E-06  6.39E-04  0.00E+00  0.00E+00  8.80E-06  7.68E-04  6.29E-03  0.81081
    936.   10.684  1.49E-06  1.31E-04  7.28E-06  6.37E-04  0.00E+00  0.00E+00  8.77E-06  7.68E-04  6.31E-03  0.80802
    938.   10.661  1.50E-06  1.32E-04  7.23E-06  6.36E-04  0.00E+00  0.00E+00  8.73E-06  7.68E-04  6.33E-03  0.80558
    940.   10.638  1.62E-06  1.43E-04  7.03E-06  6.21E-04  0.00E+00  0.00E+00  8.65E-06  7.64E-04  6.34E-03  0.78648
    942.   10.616  1.68E-06  1.49E-04  6.89E-06  6.12E-04  0.00E+00  0.00E+00  8.58E-06  7.61E-04  6.36E-03  0.77402
    944.   10.593  1.66E-06  1.48E-04  6.89E-06  6.14E-04  0.00E+00  0.00E+00  8.55E-06  7.62E-04  6.38E-03  0.77711
    946.   10.571  1.85E-06  1.65E-04  6.61E-06  5.92E-04  0.00E+00  0.00E+00  8.46E-06  7.57E-04  6.39E-03  0.74816
    948.   10.549  2.15E-06  1.93E-04  6.16E-06  5.54E-04  0.00E+00  0.00E+00  8.31E-06  7.47E-04  6.41E-03  0.69946
    950.   10.526  1.71E-06  1.54E-04  6.70E-06  6.05E-04  0.00E+00  0.00E+00  8.41E-06  7.59E-04  6.43E-03  0.76435
    952.   10.504  1.59E-06  1.44E-04  6.85E-06  6.20E-04  0.00E+00  0.00E+00  8.44E-06  7.65E-04  6.44E-03  0.78331
    954.   10.482  1.81E-06  1.64E-04  6.55E-06  5.96E-04  0.00E+00  0.00E+00  8.35E-06  7.60E-04  6.46E-03  0.75203
    956.   10.460  1.68E-06  1.54E-04  6.67E-06  6.09E-04  0.00E+00  0.00E+00  8.35E-06  7.63E-04  6.48E-03  0.76848
    958.   10.438  1.41E-06  1.30E-04  6.99E-06  6.41E-04  0.00E+00  0.00E+00  8.40E-06  7.71E-04  6.49E-03  0.80885
    960.   10.417  1.35E-06  1.24E-04  7.06E-06  6.51E-04  0.00E+00  0.00E+00  8.41E-06  7.75E-04  6.51E-03  0.82027
    962.   10.395  1.22E-06  1.13E-04  7.18E-06  6.64E-04  0.00E+00  0.00E+00  8.39E-06  7.77E-04  6.53E-03  0.83696
    964.   10.373  1.27E-06  1.18E-04  7.05E-06  6.55E-04  0.00E+00  0.00E+00  8.31E-06  7.73E-04  6.54E-03  0.82479
    966.   10.352  1.49E-06  1.39E-04  6.71E-06  6.26E-04  0.00E+00  0.00E+00  8.21E-06  7.66E-04  6.56E-03  0.78895
    968.   10.331  1.50E-06  1.41E-04  6.65E-06  6.23E-04  0.00E+00  0.00E+00  8.15E-06  7.63E-04  6.58E-03  0.78404
    970.   10.309  1.62E-06  1.52E-04  6.45E-06  6.07E-04  0.00E+00  0.00E+00  8.07E-06  7.60E-04  6.59E-03  0.76430
    972.   10.288  1.94E-06  1.83E-04  6.01E-06  5.68E-04  0.00E+00  0.00E+00  7.95E-06  7.51E-04  6.61E-03  0.71503
    974.   10.267  1.87E-06  1.77E-04  6.07E-06  5.76E-04  0.00E+00  0.00E+00  7.94E-06  7.53E-04  6.63E-03  0.72479
    976.   10.246  1.93E-06  1.84E-04  5.93E-06  5.65E-04  0.00E+00  0.00E+00  7.86E-06  7.49E-04  6.64E-03  0.71091
    978.   10.225  1.59E-06  1.52E-04  6.33E-06  6.06E-04  0.00E+00  0.00E+00  7.92E-06  7.57E-04  6.66E-03  0.76175
    980.   10.204  1.33E-06  1.27E-04  6.62E-06  6.36E-04  0.00E+00  0.00E+00  7.95E-06  7.63E-04  6.67E-03  0.79922
    982.   10.183  1.35E-06  1.30E-04  6.54E-06  6.31E-04  0.00E+00  0.00E+00  7.89E-06  7.61E-04  6.69E-03  0.79349
    984.   10.163  1.27E-06  1.23E-04  6.60E-06  6.39E-04  0.00E+00  0.00E+00  7.87E-06  7.62E-04  6.70E-03  0.80308
    986.   10.142  1.12E-06  1.09E-04  6.73E-06  6.54E-04  0.00E+00  0.00E+00  7.85E-06  7.63E-04  6.72E-03  0.82224
    988.   10.121  1.09E-06  1.06E-04  6.68E-06  6.52E-04  0.00E+00  0.00E+00  7.77E-06  7.58E-04  6.74E-03  0.81929
    990.   10.101  1.10E-06  1.08E-04  6.58E-06  6.45E-04  0.00E+00  0.00E+00  7.68E-06  7.53E-04  6.75E-03  0.81076
    992.   10.081  1.09E-06  1.07E-04  6.47E-06  6.37E-04  0.00E+00  0.00E+00  7.56E-06  7.44E-04  6.77E-03  0.80032
    994.   10.060  1.10E-06  1.09E-04  6.34E-06  6.26E-04  0.00E+00  0.00E+00  7.44E-06  7.35E-04  6.78E-03  0.78700
    996.   10.040  1.14E-06  1.14E-04  6.13E-06  6.09E-04  0.00E+00  0.00E+00  7.28E-06  7.22E-04  6.80E-03  0.76491
    998.   10.020  1.35E-06  1.34E-04  5.72E-06  5.70E-04  0.00E+00  0.00E+00  7.07E-06  7.04E-04  6.81E-03  0.71597
   1000.   10.000  1.50E-06  1.50E-04  5.37E-06  5.37E-04  0.00E+00  0.00E+00  6.87E-06  6.87E-04  6.82E-03  0.67494
  iv         1005
1                                             RADIANCE(WATTS/CM2-STER-XXX)
0  FREQ   WAVLEN    PATH THERMAL      SURFACE EMISSION    SURFACE REFLECTED     TOTAL RADIANCE   INTEGRAL    TOTAL
  (CM-1) (MICRN)    (CM-1)   (MICRN)    (CM-1)   (MICRN)    (CM-1)   (MICRN)    (CM-1)   (MICRN)    (CM-1)   TRANS

   1002.    9.980  1.44E-06  1.45E-04  5.23E-06  5.25E-04  0.00E+00  0.00E+00  6.67E-06  6.69E-04  6.84E-03  0.65954
   1004.    9.960  1.54E-06  1.55E-04  4.92E-06  4.96E-04  0.00E+00  0.00E+00  6.46E-06  6.51E-04  6.85E-03  0.62328
   1006.    9.940  1.54E-06  1.56E-04  4.65E-06  4.71E-04  0.00E+00  0.00E+00  6.20E-06  6.27E-04  6.86E-03  0.59216
   1008.    9.921  1.59E-06  1.62E-04  4.45E-06  4.52E-04  0.00E+00  0.00E+00  6.04E-06  6.13E-04  6.87E-03  0.56795
   1010.    9.901  1.88E-06  1.92E-04  3.89E-06  3.96E-04  0.00E+00  0.00E+00  5.77E-06  5.88E-04  6.89E-03  0.49849
   1012.    9.881  1.95E-06  1.99E-04  3.55E-06  3.63E-04  0.00E+00  0.00E+00  5.49E-06  5.63E-04  6.90E-03  0.45674
   1014.    9.862  2.01E-06  2.06E-04  3.28E-06  3.37E-04  0.00E+00  0.00E+00  5.29E-06  5.44E-04  6.91E-03  0.42431
   1016.    9.843  1.97E-06  2.04E-04  3.18E-06  3.28E-04  0.00E+00  0.00E+00  5.15E-06  5.32E-04  6.92E-03  0.41308
   1018.    9.823  2.05E-06  2.13E-04  2.85E-06  2.95E-04  0.00E+00  0.00E+00  4.90E-06  5.08E-04  6.93E-03  0.37175
   1020.    9.804  1.96E-06  2.04E-04  2.78E-06  2.89E-04  0.00E+00  0.00E+00  4.74E-06  4.93E-04  6.94E-03  0.36426
   1022.    9.785  1.93E-06  2.02E-04  2.67E-06  2.78E-04  0.00E+00  0.00E+00  4.60E-06  4.80E-04  6.95E-03  0.35057
   1024.    9.766  1.93E-06  2.02E-04  2.59E-06  2.71E-04  0.00E+00  0.00E+00  4.51E-06  4.73E-04  6.95E-03  0.34160
   1026.    9.747  1.94E-06  2.05E-04  2.56E-06  2.69E-04  0.00E+00  0.00E+00  4.50E-06  4.74E-04  6.96E-03  0.33912
   1028.    9.728  2.16E-06  2.29E-04  2.22E-06  2.34E-04  0.00E+00  0.00E+00  4.38E-06  4.63E-04  6.97E-03  0.29527
   1030.    9.709  2.17E-06  2.30E-04  2.12E-06  2.25E-04  0.00E+00  0.00E+00  4.29E-06  4.55E-04  6.98E-03  0.28380
   1032.    9.690  1.99E-06  2.12E-04  2.35E-06  2.51E-04  0.00E+00  0.00E+00  4.35E-06  4.63E-04  6.99E-03  0.31618
   1034.    9.671  1.94E-06  2.08E-04  2.35E-06  2.51E-04  0.00E+00  0.00E+00  4.29E-06  4.59E-04  7.00E-03  0.31677
   1036.    9.653  1.99E-06  2.13E-04  2.15E-06  2.31E-04  0.00E+00  0.00E+00  4.14E-06  4.44E-04  7.01E-03  0.29173
   1038.    9.634  2.09E-06  2.25E-04  1.86E-06  2.00E-04  0.00E+00  0.00E+00  3.95E-06  4.26E-04  7.01E-03  0.25289
   1040.    9.615  2.08E-06  2.25E-04  1.81E-06  1.96E-04  0.00E+00  0.00E+00  3.90E-06  4.22E-04  7.02E-03  0.24801
   1042.    9.597  1.71E-06  1.86E-04  3.20E-06  3.47E-04  0.00E+00  0.00E+00  4.91E-06  5.33E-04  7.03E-03  0.43955
   1044.    9.579  1.45E-06  1.58E-04  4.14E-06  4.51E-04  0.00E+00  0.00E+00  5.58E-06  6.09E-04  7.04E-03  0.57000
   1046.    9.560  1.68E-06  1.84E-04  3.01E-06  3.29E-04  0.00E+00  0.00E+00  4.69E-06  5.13E-04  7.05E-03  0.41648
   1048.    9.542  1.99E-06  2.19E-04  1.96E-06  2.16E-04  0.00E+00  0.00E+00  3.96E-06  4.35E-04  7.06E-03  0.27288
   1050.    9.524  2.15E-06  2.37E-04  1.52E-06  1.68E-04  0.00E+00  0.00E+00  3.67E-06  4.05E-04  7.07E-03  0.21269
   1052.    9.506  2.12E-06  2.34E-04  1.44E-06  1.60E-04  0.00E+00  0.00E+00  3.56E-06  3.94E-04  7.08E-03  0.20209
   1054.    9.488  2.10E-06  2.33E-04  1.38E-06  1.54E-04  0.00E+00  0.00E+00  3.48E-06  3.87E-04  7.08E-03  0.19473
   1056.    9.470  2.13E-06  2.37E-04  1.34E-06  1.50E-04  0.00E+00  0.00E+00  3.47E-06  3.87E-04  7.09E-03  0.19010
   1058.    9.452  2.05E-06  2.29E-04  1.65E-06  1.84E-04  0.00E+00  0.00E+00  3.70E-06  4.14E-04  7.10E-03  0.23402
   1060.    9.434  1.98E-06  2.22E-04  2.00E-06  2.25E-04  0.00E+00  0.00E+00  3.98E-06  4.47E-04  7.10E-03  0.28571
   1062.    9.416  1.84E-06  2.08E-04  2.46E-06  2.77E-04  0.00E+00  0.00E+00  4.30E-06  4.86E-04  7.11E-03  0.35265
   1064.    9.398  1.76E-06  1.99E-04  3.06E-06  3.47E-04  0.00E+00  0.00E+00  4.82E-06  5.46E-04  7.12E-03  0.44094
   1066.    9.381  1.93E-06  2.19E-04  3.37E-06  3.82E-04  0.00E+00  0.00E+00  5.30E-06  6.02E-04  7.13E-03  0.48668
   1068.    9.363  1.51E-06  1.72E-04  4.27E-06  4.87E-04  0.00E+00  0.00E+00  5.78E-06  6.59E-04  7.14E-03  0.61970
   1070.    9.346  1.15E-06  1.31E-04  5.01E-06  5.73E-04  0.00E+00  0.00E+00  6.15E-06  7.04E-04  7.16E-03  0.73018
   1072.    9.328  1.37E-06  1.57E-04  4.89E-06  5.62E-04  0.00E+00  0.00E+00  6.25E-06  7.19E-04  7.17E-03  0.71578
   1074.    9.311  1.81E-06  2.09E-04  4.29E-06  4.95E-04  0.00E+00  0.00E+00  6.10E-06  7.04E-04  7.18E-03  0.63145
   1076.    9.294  1.47E-06  1.70E-04  4.67E-06  5.41E-04  0.00E+00  0.00E+00  6.14E-06  7.11E-04  7.19E-03  0.69072
   1078.    9.276  1.10E-06  1.28E-04  5.17E-06  6.00E-04  0.00E+00  0.00E+00  6.27E-06  7.28E-04  7.21E-03  0.76695
   1080.    9.259  1.18E-06  1.37E-04  4.98E-06  5.81E-04  0.00E+00  0.00E+00  6.16E-06  7.19E-04  7.22E-03  0.74321
   1082.    9.242  1.12E-06  1.32E-04  5.04E-06  5.90E-04  0.00E+00  0.00E+00  6.17E-06  7.22E-04  7.23E-03  0.75570
   1084.    9.225  1.03E-06  1.21E-04  5.22E-06  6.13E-04  0.00E+00  0.00E+00  6.25E-06  7.34E-04  7.24E-03  0.78554
   1086.    9.208  1.05E-06  1.23E-04  5.16E-06  6.08E-04  0.00E+00  0.00E+00  6.20E-06  7.31E-04  7.26E-03  0.77941
   1088.    9.191  9.12E-07  1.08E-04  5.30E-06  6.27E-04  0.00E+00  0.00E+00  6.21E-06  7.35E-04  7.27E-03  0.80458
   1090.    9.174  1.21E-06  1.43E-04  4.93E-06  5.86E-04  0.00E+00  0.00E+00  6.14E-06  7.29E-04  7.28E-03  0.75239
   1092.    9.158  1.18E-06  1.41E-04  4.97E-06  5.92E-04  0.00E+00  0.00E+00  6.14E-06  7.33E-04  7.29E-03  0.76109
   1094.    9.141  6.70E-07  8.01E-05  5.57E-06  6.66E-04  0.00E+00  0.00E+00  6.24E-06  7.46E-04  7.31E-03  0.85687
   1096.    9.124  5.89E-07  7.08E-05  5.65E-06  6.79E-04  0.00E+00  0.00E+00  6.24E-06  7.50E-04  7.32E-03  0.87443
   1098.    9.107  8.26E-07  9.96E-05  5.34E-06  6.43E-04  0.00E+00  0.00E+00  6.16E-06  7.43E-04  7.33E-03  0.82892
   1100.    9.091  1.60E-06  1.94E-04  4.30E-06  5.20E-04  0.00E+00  0.00E+00  5.90E-06  7.14E-04  7.34E-03  0.67096
  iv         1105
1                                             RADIANCE(WATTS/CM2-STER-XXX)
0  FREQ   WAVLEN    PATH THERMAL      SURFACE EMISSION    SURFACE REFLECTED     TOTAL RADIANCE   INTEGRAL    TOTAL
  (CM-1) (MICRN)    (CM-1)   (MICRN)    (CM-1)   (MICRN)    (CM-1)   (MICRN)    (CM-1)   (MICRN)    (CM-1)   TRANS

   1102.    9.074  1.28E-06  1.56E-04  4.69E-06  5.69E-04  0.00E+00  0.00E+00  5.97E-06  7.25E-04  7.35E-03  0.73500
   1104.    9.058  7.17E-07  8.73E-05  5.41E-06  6.59E-04  0.00E+00  0.00E+00  6.12E-06  7.46E-04  7.37E-03  0.85136
   1106.    9.042  1.31E-06  1.60E-04  4.61E-06  5.64E-04  0.00E+00  0.00E+00  5.92E-06  7.24E-04  7.38E-03  0.72981
   1108.    9.025  1.21E-06  1.49E-04  4.70E-06  5.77E-04  0.00E+00  0.00E+00  5.91E-06  7.26E-04  7.39E-03  0.74727
   1110.    9.009  9.86E-07  1.22E-04  4.97E-06  6.12E-04  0.00E+00  0.00E+00  5.95E-06  7.33E-04  7.40E-03  0.79279
   1112.    8.993  1.41E-06  1.74E-04  4.35E-06  5.37E-04  0.00E+00  0.00E+00  5.76E-06  7.12E-04  7.41E-03  0.69737
   1114.    8.977  8.13E-07  1.01E-04  5.09E-06  6.32E-04  0.00E+00  0.00E+00  5.90E-06  7.33E-04  7.43E-03  0.82094
   1116.    8.961  6.12E-07  7.62E-05  5.33E-06  6.64E-04  0.00E+00  0.00E+00  5.94E-06  7.40E-04  7.44E-03  0.86330
   1118.    8.945  7.62E-07  9.52E-05  5.10E-06  6.38E-04  0.00E+00  0.00E+00  5.86E-06  7.33E-04  7.45E-03  0.82980
   1120.    8.929  1.37E-06  1.72E-04  4.23E-06  5.31E-04  0.00E+00  0.00E+00  5.61E-06  7.03E-04  7.46E-03  0.69165
   1122.    8.913  1.39E-06  1.75E-04  4.17E-06  5.25E-04  0.00E+00  0.00E+00  5.57E-06  7.01E-04  7.47E-03  0.68553
   1124.    8.897  6.55E-07  8.27E-05  5.11E-06  6.46E-04  0.00E+00  0.00E+00  5.77E-06  7.29E-04  7.48E-03  0.84370
   1126.    8.881  5.39E-07  6.84E-05  5.23E-06  6.63E-04  0.00E+00  0.00E+00  5.77E-06  7.31E-04  7.49E-03  0.86652
   1128.    8.865  5.21E-07  6.63E-05  5.24E-06  6.66E-04  0.00E+00  0.00E+00  5.76E-06  7.33E-04  7.51E-03  0.87231
   1130.    8.850  5.55E-07  7.08E-05  5.18E-06  6.61E-04  0.00E+00  0.00E+00  5.73E-06  7.32E-04  7.52E-03  0.86645
   1132.    8.834  6.45E-07  8.27E-05  5.06E-06  6.49E-04  0.00E+00  0.00E+00  5.71E-06  7.31E-04  7.53E-03  0.85098
   1134.    8.818  1.53E-06  1.97E-04  3.88E-06  4.98E-04  0.00E+00  0.00E+00  5.40E-06  6.95E-04  7.54E-03  0.65413
   1136.    8.803  2.65E-06  3.42E-04  2.22E-06  2.86E-04  0.00E+00  0.00E+00  4.87E-06  6.28E-04  7.55E-03  0.37650
   1138.    8.787  1.72E-06  2.23E-04  3.53E-06  4.58E-04  0.00E+00  0.00E+00  5.26E-06  6.81E-04  7.56E-03  0.60322
   1140.    8.772  7.05E-07  9.17E-05  4.94E-06  6.41E-04  0.00E+00  0.00E+00  5.64E-06  7.33E-04  7.57E-03  0.84567
   1142.    8.757  6.09E-07  7.94E-05  5.02E-06  6.55E-04  0.00E+00  0.00E+00  5.63E-06  7.34E-04  7.58E-03  0.86465
   1144.    8.741  5.18E-07  6.79E-05  5.10E-06  6.67E-04  0.00E+00  0.00E+00  5.62E-06  7.35E-04  7.59E-03  0.88188
   1146.    8.726  5.14E-07  6.75E-05  5.08E-06  6.67E-04  0.00E+00  0.00E+00  5.59E-06  7.35E-04  7.60E-03  0.88274
   1148.    8.711  1.11E-06  1.47E-04  4.25E-06  5.60E-04  0.00E+00  0.00E+00  5.36E-06  7.07E-04  7.62E-03  0.74164
   1150.    8.696  1.59E-06  2.11E-04  3.61E-06  4.78E-04  0.00E+00  0.00E+00  5.21E-06  6.89E-04  7.63E-03  0.63405
   1152.    8.681  1.65E-06  2.20E-04  3.52E-06  4.67E-04  0.00E+00  0.00E+00  5.17E-06  6.86E-04  7.64E-03  0.62009
   1154.    8.666  9.69E-07  1.29E-04  4.40E-06  5.86E-04  0.00E+00  0.00E+00  5.37E-06  7.15E-04  7.65E-03  0.77965
   1156.    8.651  5.02E-07  6.71E-05  4.97E-06  6.64E-04  0.00E+00  0.00E+00  5.47E-06  7.31E-04  7.66E-03  0.88416
   1158.    8.636  4.64E-07  6.22E-05  4.99E-06  6.69E-04  0.00E+00  0.00E+00  5.45E-06  7.31E-04  7.67E-03  0.89210
   1160.    8.621  4.86E-07  6.55E-05  4.93E-06  6.63E-04  0.00E+00  0.00E+00  5.42E-06  7.29E-04  7.68E-03  0.88635
   1162.    8.606  5.73E-07  7.73E-05  4.81E-06  6.49E-04  0.00E+00  0.00E+00  5.38E-06  7.26E-04  7.69E-03  0.86827
   1164.    8.591  1.42E-06  1.92E-04  3.63E-06  4.92E-04  0.00E+00  0.00E+00  5.05E-06  6.84E-04  7.70E-03  0.65813
   1166.    8.576  1.75E-06  2.38E-04  3.17E-06  4.30E-04  0.00E+00  0.00E+00  4.92E-06  6.69E-04  7.71E-03  0.57784
   1168.    8.562  8.10E-07  1.10E-04  4.44E-06  6.06E-04  0.00E+00  0.00E+00  5.25E-06  7.16E-04  7.72E-03  0.81402
   1170.    8.547  6.89E-07  9.43E-05  4.58E-06  6.27E-04  0.00E+00  0.00E+00  5.27E-06  7.21E-04  7.73E-03  0.84344
   1172.    8.532  1.27E-06  1.75E-04  3.80E-06  5.22E-04  0.00E+00  0.00E+00  5.08E-06  6.97E-04  7.74E-03  0.70335
   1174.    8.518  2.53E-06  3.49E-04  1.89E-06  2.60E-04  0.00E+00  0.00E+00  4.42E-06  6.09E-04  7.75E-03  0.35048
   1176.    8.503  1.96E-06  2.72E-04  2.65E-06  3.67E-04  0.00E+00  0.00E+00  4.62E-06  6.38E-04  7.76E-03  0.49652
   1178.    8.489  9.10E-07  1.26E-04  4.22E-06  5.86E-04  0.00E+00  0.00E+00  5.13E-06  7.12E-04  7.77E-03  0.79278
   1180.    8.475  8.06E-07  1.12E-04  4.31E-06  6.00E-04  0.00E+00  0.00E+00  5.11E-06  7.12E-04  7.78E-03  0.81306
   1182.    8.460  7.31E-07  1.02E-04  4.38E-06  6.12E-04  0.00E+00  0.00E+00  5.11E-06  7.14E-04  7.79E-03  0.83059
   1184.    8.446  8.78E-07  1.23E-04  4.19E-06  5.88E-04  0.00E+00  0.00E+00  5.07E-06  7.11E-04  7.80E-03  0.79908
   1186.    8.432  1.89E-06  2.65E-04  2.68E-06  3.76E-04  0.00E+00  0.00E+00  4.56E-06  6.42E-04  7.81E-03  0.51209
   1188.    8.418  2.24E-06  3.16E-04  2.19E-06  3.09E-04  0.00E+00  0.00E+00  4.43E-06  6.26E-04  7.82E-03  0.42262
   1190.    8.403  1.22E-06  1.73E-04  3.67E-06  5.19E-04  0.00E+00  0.00E+00  4.89E-06  6.92E-04  7.83E-03  0.70956
   1192.    8.389  8.40E-07  1.19E-04  4.11E-06  5.84E-04  0.00E+00  0.00E+00  4.95E-06  7.03E-04  7.84E-03  0.79914
   1194.    8.375  7.79E-07  1.11E-04  4.17E-06  5.95E-04  0.00E+00  0.00E+00  4.95E-06  7.06E-04  7.85E-03  0.81502
   1196.    8.361  1.12E-06  1.60E-04  3.65E-06  5.23E-04  0.00E+00  0.00E+00  4.77E-06  6.82E-04  7.86E-03  0.71714
   1198.    8.347  1.95E-06  2.80E-04  2.41E-06  3.46E-04  0.00E+00  0.00E+00  4.36E-06  6.26E-04  7.87E-03  0.47545
   1200.    8.333  1.39E-06  2.00E-04  3.26E-06  4.69E-04  0.00E+00  0.00E+00  4.64E-06  6.69E-04  7.88E-03  0.64650
  iv         1205
1                                             RADIANCE(WATTS/CM2-STER-XXX)
0  FREQ   WAVLEN    PATH THERMAL      SURFACE EMISSION    SURFACE REFLECTED     TOTAL RADIANCE   INTEGRAL    TOTAL
  (CM-1) (MICRN)    (CM-1)   (MICRN)    (CM-1)   (MICRN)    (CM-1)   (MICRN)    (CM-1)   (MICRN)    (CM-1)   TRANS

   1202.    8.319  6.19E-07  8.94E-05  4.26E-06  6.15E-04  0.00E+00  0.00E+00  4.88E-06  7.05E-04  7.89E-03  0.84913
   1204.    8.306  6.48E-07  9.39E-05  4.19E-06  6.08E-04  0.00E+00  0.00E+00  4.84E-06  7.02E-04  7.90E-03  0.84042
   1206.    8.292  9.36E-07  1.36E-04  3.82E-06  5.55E-04  0.00E+00  0.00E+00  4.75E-06  6.91E-04  7.90E-03  0.76842
   1208.    8.278  9.73E-07  1.42E-04  3.76E-06  5.48E-04  0.00E+00  0.00E+00  4.73E-06  6.90E-04  7.91E-03  0.76020
   1210.    8.264  1.71E-06  2.51E-04  2.54E-06  3.71E-04  0.00E+00  0.00E+00  4.25E-06  6.22E-04  7.92E-03  0.51543
   1212.    8.251  2.61E-06  3.83E-04  1.10E-06  1.62E-04  0.00E+00  0.00E+00  3.71E-06  5.45E-04  7.93E-03  0.22573
   1214.    8.237  2.00E-06  2.95E-04  2.23E-06  3.29E-04  0.00E+00  0.00E+00  4.23E-06  6.24E-04  7.94E-03  0.45876
   1216.    8.224  1.33E-06  1.97E-04  3.17E-06  4.69E-04  0.00E+00  0.00E+00  4.50E-06  6.66E-04  7.95E-03  0.65516
   1218.    8.210  1.87E-06  2.77E-04  2.29E-06  3.40E-04  0.00E+00  0.00E+00  4.15E-06  6.16E-04  7.96E-03  0.47478
   1220.    8.197  2.01E-06  2.99E-04  2.01E-06  2.99E-04  0.00E+00  0.00E+00  4.01E-06  5.97E-04  7.96E-03  0.41906
   1222.    8.183  1.68E-06  2.51E-04  2.54E-06  3.79E-04  0.00E+00  0.00E+00  4.22E-06  6.30E-04  7.97E-03  0.53188
   1224.    8.170  2.18E-06  3.26E-04  1.63E-06  2.44E-04  0.00E+00  0.00E+00  3.80E-06  5.70E-04  7.98E-03  0.34235
   1226.    8.157  2.30E-06  3.46E-04  1.38E-06  2.07E-04  0.00E+00  0.00E+00  3.68E-06  5.53E-04  7.99E-03  0.29225
   1228.    8.143  1.44E-06  2.17E-04  2.74E-06  4.13E-04  0.00E+00  0.00E+00  4.18E-06  6.30E-04  8.00E-03  0.58384
   1230.    8.130  9.72E-07  1.47E-04  3.28E-06  4.96E-04  0.00E+00  0.00E+00  4.25E-06  6.44E-04  8.00E-03  0.70284
   1232.    8.117  6.90E-07  1.05E-04  3.74E-06  5.67E-04  0.00E+00  0.00E+00  4.43E-06  6.72E-04  8.01E-03  0.80394
   1234.    8.104  7.51E-07  1.14E-04  3.61E-06  5.50E-04  0.00E+00  0.00E+00  4.36E-06  6.64E-04  8.02E-03  0.78065
   1236.    8.091  1.25E-06  1.91E-04  2.72E-06  4.16E-04  0.00E+00  0.00E+00  3.97E-06  6.07E-04  8.03E-03  0.59175
   1238.    8.078  1.67E-06  2.56E-04  2.15E-06  3.30E-04  0.00E+00  0.00E+00  3.82E-06  5.85E-04  8.04E-03  0.47011
   1240.    8.065  1.71E-06  2.64E-04  2.16E-06  3.31E-04  0.00E+00  0.00E+00  3.87E-06  5.95E-04  8.04E-03  0.47358
   1242.    8.052  1.90E-06  2.93E-04  1.68E-06  2.59E-04  0.00E+00  0.00E+00  3.58E-06  5.52E-04  8.05E-03  0.37043
   1244.    8.039  2.37E-06  3.67E-04  6.90E-07  1.07E-04  0.00E+00  0.00E+00  3.06E-06  4.74E-04  8.06E-03  0.15302
   1246.    8.026  1.94E-06  3.00E-04  1.39E-06  2.15E-04  0.00E+00  0.00E+00  3.32E-06  5.16E-04  8.06E-03  0.30979
   1248.    8.013  1.55E-06  2.41E-04  1.99E-06  3.10E-04  0.00E+00  0.00E+00  3.54E-06  5.52E-04  8.07E-03  0.44710
   1250.    8.000  1.57E-06  2.45E-04  2.09E-06  3.27E-04  0.00E+00  0.00E+00  3.66E-06  5.71E-04  8.08E-03  0.47142
   1252.    7.987  1.82E-06  2.85E-04  1.72E-06  2.69E-04  0.00E+00  0.00E+00  3.54E-06  5.54E-04  8.09E-03  0.38912
   1254.    7.974  1.78E-06  2.80E-04  1.55E-06  2.44E-04  0.00E+00  0.00E+00  3.34E-06  5.25E-04  8.09E-03  0.35410
   1256.    7.962  1.77E-06  2.80E-04  1.80E-06  2.84E-04  0.00E+00  0.00E+00  3.57E-06  5.64E-04  8.10E-03  0.41190
   1258.    7.949  2.19E-06  3.46E-04  1.07E-06  1.70E-04  0.00E+00  0.00E+00  3.26E-06  5.16E-04  8.11E-03  0.24677
   1260.    7.937  2.18E-06  3.46E-04  2.58E-07  4.09E-05  0.00E+00  0.00E+00  2.44E-06  3.87E-04  8.11E-03  0.05953
   1262.    7.924  2.13E-06  3.38E-04  5.31E-07  8.45E-05  0.00E+00  0.00E+00  2.66E-06  4.23E-04  8.12E-03  0.12371
   1264.    7.911  2.28E-06  3.64E-04  6.14E-07  9.80E-05  0.00E+00  0.00E+00  2.89E-06  4.62E-04  8.12E-03  0.14332
   1266.    7.899  2.37E-06  3.80E-04  1.85E-07  2.96E-05  0.00E+00  0.00E+00  2.55E-06  4.09E-04  8.13E-03  0.04338
   1268.    7.886  2.16E-06  3.48E-04  3.03E-08  4.87E-06  0.00E+00  0.00E+00  2.19E-06  3.53E-04  8.13E-03  0.00713
   1270.    7.874  2.02E-06  3.25E-04  6.21E-09  1.00E-06  0.00E+00  0.00E+00  2.02E-06  3.26E-04  8.14E-03  0.00147
   1272.    7.862  2.10E-06  3.39E-04  1.46E-07  2.36E-05  0.00E+00  0.00E+00  2.24E-06  3.63E-04  8.14E-03  0.03504
   1274.    7.849  2.11E-06  3.43E-04  8.14E-07  1.32E-04  0.00E+00  0.00E+00  2.93E-06  4.75E-04  8.15E-03  0.19597
   1276.    7.837  1.63E-06  2.66E-04  1.50E-06  2.44E-04  0.00E+00  0.00E+00  3.13E-06  5.10E-04  8.15E-03  0.36195
   1278.    7.825  1.57E-06  2.56E-04  1.77E-06  2.90E-04  0.00E+00  0.00E+00  3.34E-06  5.46E-04  8.16E-03  0.43033
   1280.    7.813  2.08E-06  3.40E-04  9.84E-07  1.61E-04  0.00E+00  0.00E+00  3.06E-06  5.01E-04  8.17E-03  0.23964
   1282.    7.800  2.06E-06  3.39E-04  5.18E-07  8.52E-05  0.00E+00  0.00E+00  2.58E-06  4.24E-04  8.17E-03  0.12722
   1284.    7.788  2.13E-06  3.51E-04  5.38E-07  8.86E-05  0.00E+00  0.00E+00  2.67E-06  4.40E-04  8.18E-03  0.13255
   1286.    7.776  2.24E-06  3.70E-04  3.67E-07  6.06E-05  0.00E+00  0.00E+00  2.61E-06  4.31E-04  8.18E-03  0.09074
   1288.    7.764  1.96E-06  3.25E-04  9.88E-08  1.64E-05  0.00E+00  0.00E+00  2.06E-06  3.42E-04  8.19E-03  0.02463
   1290.    7.752  2.23E-06  3.70E-04  2.82E-07  4.69E-05  0.00E+00  0.00E+00  2.51E-06  4.17E-04  8.19E-03  0.07080
   1292.    7.740  2.18E-06  3.63E-04  6.22E-07  1.04E-04  0.00E+00  0.00E+00  2.80E-06  4.67E-04  8.20E-03  0.15685
   1294.    7.728  1.93E-06  3.24E-04  6.09E-07  1.02E-04  0.00E+00  0.00E+00  2.54E-06  4.26E-04  8.20E-03  0.15400
   1296.    7.716  1.93E-06  3.24E-04  2.68E-07  4.50E-05  0.00E+00  0.00E+00  2.19E-06  3.69E-04  8.21E-03  0.06810
   1298.    7.704  1.75E-06  2.95E-04  5.59E-07  9.42E-05  0.00E+00  0.00E+00  2.31E-06  3.89E-04  8.21E-03  0.14351
   1300.    7.692  1.59E-06  2.69E-04  7.72E-07  1.30E-04  0.00E+00  0.00E+00  2.37E-06  4.00E-04  8.21E-03  0.19856
  iv         1305
1                                             RADIANCE(WATTS/CM2-STER-XXX)
0  FREQ   WAVLEN    PATH THERMAL      SURFACE EMISSION    SURFACE REFLECTED     TOTAL RADIANCE   INTEGRAL    TOTAL
  (CM-1) (MICRN)    (CM-1)   (MICRN)    (CM-1)   (MICRN)    (CM-1)   (MICRN)    (CM-1)   (MICRN)    (CM-1)   TRANS

   1302.    7.680  1.47E-06  2.49E-04  3.89E-07  6.59E-05  0.00E+00  0.00E+00  1.86E-06  3.15E-04  8.22E-03  0.10046
   1304.    7.669  1.20E-06  2.05E-04  1.13E-07  1.92E-05  0.00E+00  0.00E+00  1.32E-06  2.24E-04  8.22E-03  0.02929
   1306.    7.657  1.36E-06  2.32E-04  4.39E-08  7.49E-06  0.00E+00  0.00E+00  1.40E-06  2.40E-04  8.22E-03  0.01150
   1308.    7.645  2.01E-06  3.44E-04  6.24E-08  1.07E-05  0.00E+00  0.00E+00  2.07E-06  3.55E-04  8.23E-03  0.01642
   1310.    7.634  2.24E-06  3.85E-04  1.05E-07  1.80E-05  0.00E+00  0.00E+00  2.35E-06  4.03E-04  8.23E-03  0.02778
   1312.    7.622  1.86E-06  3.20E-04  4.64E-08  7.98E-06  0.00E+00  0.00E+00  1.90E-06  3.28E-04  8.24E-03  0.01228
   1314.    7.610  1.67E-06  2.88E-04  4.25E-11  7.34E-09  0.00E+00  0.00E+00  1.67E-06  2.88E-04  8.24E-03  0.00001
   1316.    7.599  1.68E-06  2.92E-04  4.20E-11  7.28E-09  0.00E+00  0.00E+00  1.68E-06  2.92E-04  8.24E-03  0.00001
   1318.    7.587  1.50E-06  2.60E-04  2.01E-11  3.49E-09  0.00E+00  0.00E+00  1.50E-06  2.60E-04  8.25E-03  0.00001
   1320.    7.576  1.55E-06  2.69E-04  3.21E-09  5.59E-07  0.00E+00  0.00E+00  1.55E-06  2.70E-04  8.25E-03  0.00088
   1322.    7.564  1.84E-06  3.22E-04  2.21E-08  3.86E-06  0.00E+00  0.00E+00  1.87E-06  3.26E-04  8.25E-03  0.00605
   1324.    7.553  2.18E-06  3.82E-04  1.37E-07  2.40E-05  0.00E+00  0.00E+00  2.32E-06  4.06E-04  8.26E-03  0.03769
   1326.    7.541  2.07E-06  3.63E-04  1.75E-07  3.08E-05  0.00E+00  0.00E+00  2.24E-06  3.94E-04  8.26E-03  0.04839
   1328.    7.530  1.97E-06  3.47E-04  6.75E-08  1.19E-05  0.00E+00  0.00E+00  2.04E-06  3.59E-04  8.27E-03  0.01872
   1330.    7.519  2.07E-06  3.66E-04  1.30E-07  2.31E-05  0.00E+00  0.00E+00  2.20E-06  3.89E-04  8.27E-03  0.03647
   1332.    7.508  1.80E-06  3.20E-04  1.26E-07  2.24E-05  0.00E+00  0.00E+00  1.93E-06  3.43E-04  8.27E-03  0.03545
   1334.    7.496  1.88E-06  3.35E-04  2.79E-08  4.97E-06  0.00E+00  0.00E+00  1.91E-06  3.40E-04  8.28E-03  0.00788
   1336.    7.485  1.64E-06  2.94E-04  8.50E-09  1.52E-06  0.00E+00  0.00E+00  1.65E-06  2.95E-04  8.28E-03  0.00240
   1338.    7.474  1.11E-06  2.00E-04  1.28E-15  2.29E-13  0.00E+00  0.00E+00  1.11E-06  2.00E-04  8.28E-03  0.00000
   1340.    7.463  1.09E-06  1.95E-04  2.22E-12  3.98E-10  0.00E+00  0.00E+00  1.09E-06  1.95E-04  8.29E-03  0.00000
   1342.    7.452  1.34E-06  2.41E-04  2.77E-09  4.99E-07  0.00E+00  0.00E+00  1.34E-06  2.42E-04  8.29E-03  0.00080
   1344.    7.440  1.81E-06  3.27E-04  2.76E-08  4.98E-06  0.00E+00  0.00E+00  1.84E-06  3.32E-04  8.29E-03  0.00803
   1346.    7.429  1.82E-06  3.30E-04  3.48E-08  6.30E-06  0.00E+00  0.00E+00  1.86E-06  3.36E-04  8.30E-03  0.01014
   1348.    7.418  1.50E-06  2.72E-04  9.07E-09  1.65E-06  0.00E+00  0.00E+00  1.51E-06  2.73E-04  8.30E-03  0.00265
   1350.    7.407  1.55E-06  2.82E-04  6.52E-09  1.19E-06  0.00E+00  0.00E+00  1.55E-06  2.83E-04  8.30E-03  0.00193
   1352.    7.396  1.67E-06  3.06E-04  1.20E-08  2.19E-06  0.00E+00  0.00E+00  1.68E-06  3.08E-04  8.31E-03  0.00356
   1354.    7.386  1.52E-06  2.78E-04  4.67E-09  8.57E-07  0.00E+00  0.00E+00  1.52E-06  2.79E-04  8.31E-03  0.00139
   1356.    7.375  1.48E-06  2.73E-04  1.20E-09  2.21E-07  0.00E+00  0.00E+00  1.48E-06  2.73E-04  8.31E-03  0.00036
   1358.    7.364  1.59E-06  2.94E-04  1.23E-09  2.26E-07  0.00E+00  0.00E+00  1.59E-06  2.94E-04  8.31E-03  0.00037
   1360.    7.353  1.38E-06  2.56E-04  7.93E-11  1.47E-08  0.00E+00  0.00E+00  1.38E-06  2.56E-04  8.32E-03  0.00002
   1362.    7.342  1.05E-06  1.96E-04  6.75E-14  1.25E-11  0.00E+00  0.00E+00  1.05E-06  1.96E-04  8.32E-03  0.00000
   1364.    7.331  1.19E-06  2.21E-04  1.10E-11  2.05E-09  0.00E+00  0.00E+00  1.19E-06  2.21E-04  8.32E-03  0.00000
   1366.    7.321  1.55E-06  2.90E-04  6.88E-11  1.28E-08  0.00E+00  0.00E+00  1.55E-06  2.90E-04  8.33E-03  0.00002
   1368.    7.310  1.37E-06  2.57E-04  4.72E-11  8.83E-09  0.00E+00  0.00E+00  1.37E-06  2.57E-04  8.33E-03  0.00001
   1370.    7.299  1.33E-06  2.49E-04  5.74E-13  1.08E-10  0.00E+00  0.00E+00  1.33E-06  2.49E-04  8.33E-03  0.00000
   1372.    7.289  1.24E-06  2.34E-04  2.54E-13  4.78E-11  0.00E+00  0.00E+00  1.24E-06  2.34E-04  8.33E-03  0.00000
   1374.    7.278  9.26E-07  1.75E-04  1.30E-17  2.46E-15  0.00E+00  0.00E+00  9.26E-07  1.75E-04  8.33E-03  0.00000
   1376.    7.267  1.07E-06  2.03E-04  6.97E-15  1.32E-12  0.00E+00  0.00E+00  1.07E-06  2.03E-04  8.34E-03  0.00000
   1378.    7.257  1.28E-06  2.43E-04  8.77E-14  1.67E-11  0.00E+00  0.00E+00  1.28E-06  2.43E-04  8.34E-03  0.00000
   1380.    7.246  1.39E-06  2.65E-04  7.20E-11  1.37E-08  0.00E+00  0.00E+00  1.39E-06  2.65E-04  8.34E-03  0.00002
   1382.    7.236  1.54E-06  2.95E-04  1.08E-10  2.06E-08  0.00E+00  0.00E+00  1.54E-06  2.95E-04  8.35E-03  0.00003
   1384.    7.225  1.47E-06  2.82E-04  2.85E-11  5.46E-09  0.00E+00  0.00E+00  1.47E-06  2.82E-04  8.35E-03  0.00001
   1386.    7.215  1.10E-06  2.11E-04  1.65E-12  3.17E-10  0.00E+00  0.00E+00  1.10E-06  2.11E-04  8.35E-03  0.00000
   1388.    7.205  9.45E-07  1.82E-04  2.03E-17  3.91E-15  0.00E+00  0.00E+00  9.45E-07  1.82E-04  8.35E-03  0.00000
   1390.    7.194  1.18E-06  2.28E-04  5.71E-17  1.10E-14  0.00E+00  0.00E+00  1.18E-06  2.28E-04  8.35E-03  0.00000
   1392.    7.184  1.15E-06  2.22E-04  3.07E-17  5.95E-15  0.00E+00  0.00E+00  1.15E-06  2.22E-04  8.36E-03  0.00000
   1394.    7.174  8.49E-07  1.65E-04  2.75E-19  5.34E-17  0.00E+00  0.00E+00  8.49E-07  1.65E-04  8.36E-03  0.00000
   1396.    7.163  8.31E-07  1.62E-04  1.98E-20  3.86E-18  0.00E+00  0.00E+00  8.31E-07  1.62E-04  8.36E-03  0.00000
   1398.    7.153  8.39E-07  1.64E-04  2.40E-16  4.68E-14  0.00E+00  0.00E+00  8.39E-07  1.64E-04  8.36E-03  0.00000
   1400.    7.143  9.08E-07  1.78E-04  2.60E-16  5.09E-14  0.00E+00  0.00E+00  9.08E-07  1.78E-04  8.36E-03  0.00000
  iv         1405
1                                             RADIANCE(WATTS/CM2-STER-XXX)
0  FREQ   WAVLEN    PATH THERMAL      SURFACE EMISSION    SURFACE REFLECTED     TOTAL RADIANCE   INTEGRAL    TOTAL
  (CM-1) (MICRN)    (CM-1)   (MICRN)    (CM-1)   (MICRN)    (CM-1)   (MICRN)    (CM-1)   (MICRN)    (CM-1)   TRANS

   1402.    7.133  1.15E-06  2.26E-04  5.98E-17  1.18E-14  0.00E+00  0.00E+00  1.15E-06  2.26E-04  8.37E-03  0.00000
   1404.    7.123  9.94E-07  1.96E-04  6.44E-14  1.27E-11  0.00E+00  0.00E+00  9.94E-07  1.96E-04  8.37E-03  0.00000
   1406.    7.112  1.10E-06  2.18E-04  2.38E-13  4.71E-11  0.00E+00  0.00E+00  1.10E-06  2.18E-04  8.37E-03  0.00000
   1408.    7.102  1.32E-06  2.62E-04  5.15E-13  1.02E-10  0.00E+00  0.00E+00  1.32E-06  2.62E-04  8.37E-03  0.00000
   1410.    7.092  1.19E-06  2.36E-04  1.79E-13  3.56E-11  0.00E+00  0.00E+00  1.19E-06  2.36E-04  8.38E-03  0.00000
   1412.    7.082  1.13E-06  2.26E-04  2.74E-14  5.46E-12  0.00E+00  0.00E+00  1.13E-06  2.26E-04  8.38E-03  0.00000
   1414.    7.072  1.16E-06  2.33E-04  2.55E-14  5.09E-12  0.00E+00  0.00E+00  1.16E-06  2.33E-04  8.38E-03  0.00000
   1416.    7.062  9.28E-07  1.86E-04  4.09E-16  8.19E-14  0.00E+00  0.00E+00  9.28E-07  1.86E-04  8.38E-03  0.00000
   1418.    7.052  6.83E-07  1.37E-04  2.83E-25  5.69E-23  0.00E+00  0.00E+00  6.83E-07  1.37E-04  8.38E-03  0.00000
   1420.    7.042  6.69E-07  1.35E-04  5.39E-32  1.09E-29  0.00E+00  0.00E+00  6.69E-07  1.35E-04  8.38E-03  0.00000
   1422.    7.032  8.20E-07  1.66E-04  5.92E-22  1.20E-19  0.00E+00  0.00E+00  8.20E-07  1.66E-04  8.39E-03  0.00000
   1424.    7.022  8.13E-07  1.65E-04  1.04E-20  2.11E-18  0.00E+00  0.00E+00  8.13E-07  1.65E-04  8.39E-03  0.00000
   1426.    7.013  9.84E-07  2.00E-04  1.52E-19  3.10E-17  0.00E+00  0.00E+00  9.84E-07  2.00E-04  8.39E-03  0.00000
   1428.    7.003  9.09E-07  1.85E-04  4.96E-18  1.01E-15  0.00E+00  0.00E+00  9.09E-07  1.85E-04  8.39E-03  0.00000
   1430.    6.993  7.66E-07  1.57E-04  1.45E-17  2.96E-15  0.00E+00  0.00E+00  7.66E-07  1.57E-04  8.39E-03  0.00000
   1432.    6.983  8.49E-07  1.74E-04  4.83E-18  9.90E-16  0.00E+00  0.00E+00  8.49E-07  1.74E-04  8.40E-03  0.00000
   1434.    6.974  7.97E-07  1.64E-04  2.19E-24  4.51E-22  0.00E+00  0.00E+00  7.97E-07  1.64E-04  8.40E-03  0.00000
   1436.    6.964  6.20E-07  1.28E-04  1.07E-33  2.20E-31  0.00E+00  0.00E+00  6.20E-07  1.28E-04  8.40E-03  0.00000
   1438.    6.954  7.17E-07  1.48E-04  1.46E-22  3.01E-20  0.00E+00  0.00E+00  7.17E-07  1.48E-04  8.40E-03  0.00000
   1440.    6.944  9.80E-07  2.03E-04  5.26E-18  1.09E-15  0.00E+00  0.00E+00  9.80E-07  2.03E-04  8.40E-03  0.00000
   1442.    6.935  1.07E-06  2.23E-04  5.51E-17  1.15E-14  0.00E+00  0.00E+00  1.07E-06  2.23E-04  8.40E-03  0.00000
   1444.    6.925  1.04E-06  2.16E-04  7.10E-17  1.48E-14  0.00E+00  0.00E+00  1.04E-06  2.16E-04  8.41E-03  0.00000
   1446.    6.916  8.18E-07  1.71E-04  1.32E-17  2.76E-15  0.00E+00  0.00E+00  8.18E-07  1.71E-04  8.41E-03  0.00000
   1448.    6.906  7.07E-07  1.48E-04  3.34E-19  7.00E-17  0.00E+00  0.00E+00  7.07E-07  1.48E-04  8.41E-03  0.00000
   1450.    6.897  8.24E-07  1.73E-04  1.11E-19  2.34E-17  0.00E+00  0.00E+00  8.24E-07  1.73E-04  8.41E-03  0.00000
   1452.    6.887  7.73E-07  1.63E-04  1.36E-25  2.87E-23  0.00E+00  0.00E+00  7.73E-07  1.63E-04  8.41E-03  0.00000
   1454.    6.878  6.58E-07  1.39E-04  1.74E-29  3.67E-27  0.00E+00  0.00E+00  6.58E-07  1.39E-04  8.41E-03  0.00000
   1456.    6.868  4.88E-07  1.03E-04  0.00E+00  0.00E+00  0.00E+00  0.00E+00  4.88E-07  1.03E-04  8.41E-03  0.00000
   1458.    6.859  4.57E-07  9.71E-05  0.00E+00  0.00E+00  0.00E+00  0.00E+00  4.57E-07  9.71E-05  8.41E-03  0.00000
   1460.    6.849  6.17E-07  1.31E-04  7.33E-37  1.56E-34  0.00E+00  0.00E+00  6.17E-07  1.31E-04  8.42E-03  0.00000
   1462.    6.840  7.20E-07  1.54E-04  2.20E-36  4.70E-34  0.00E+00  0.00E+00  7.20E-07  1.54E-04  8.42E-03  0.00000
   1464.    6.831  5.78E-07  1.24E-04  1.28E-23  2.74E-21  0.00E+00  0.00E+00  5.78E-07  1.24E-04  8.42E-03  0.00000
   1466.    6.821  6.07E-07  1.30E-04  1.28E-23  2.74E-21  0.00E+00  0.00E+00  6.07E-07  1.30E-04  8.42E-03  0.00000
   1468.    6.812  7.41E-07  1.60E-04  7.30E-32  1.57E-29  0.00E+00  0.00E+00  7.41E-07  1.60E-04  8.42E-03  0.00000
   1470.    6.803  6.63E-07  1.43E-04  3.34E-32  7.23E-30  0.00E+00  0.00E+00  6.63E-07  1.43E-04  8.42E-03  0.00000
   1472.    6.793  4.79E-07  1.04E-04  1.54E-44  3.34E-42  0.00E+00  0.00E+00  4.79E-07  1.04E-04  8.42E-03  0.00000
   1474.    6.784  4.62E-07  1.00E-04  1.22E-41  2.65E-39  0.00E+00  0.00E+00  4.62E-07  1.00E-04  8.42E-03  0.00000
   1476.    6.775  5.35E-07  1.17E-04  8.30E-36  1.81E-33  0.00E+00  0.00E+00  5.35E-07  1.17E-04  8.43E-03  0.00000
   1478.    6.766  7.02E-07  1.53E-04  1.11E-27  2.42E-25  0.00E+00  0.00E+00  7.02E-07  1.53E-04  8.43E-03  0.00000
   1480.    6.757  7.28E-07  1.59E-04  9.67E-27  2.12E-24  0.00E+00  0.00E+00  7.28E-07  1.59E-04  8.43E-03  0.00000
   1482.    6.748  6.97E-07  1.53E-04  1.60E-26  3.52E-24  0.00E+00  0.00E+00  6.97E-07  1.53E-04  8.43E-03  0.00000
   1484.    6.739  7.34E-07  1.62E-04  8.07E-27  1.78E-24  0.00E+00  0.00E+00  7.34E-07  1.62E-04  8.43E-03  0.00000
   1486.    6.729  5.82E-07  1.29E-04  3.12E-28  6.89E-26  0.00E+00  0.00E+00  5.82E-07  1.29E-04  8.43E-03  0.00000
   1488.    6.720  4.63E-07  1.02E-04  1.91E-37  4.22E-35  0.00E+00  0.00E+00  4.63E-07  1.02E-04  8.43E-03  0.00000
   1490.    6.711  4.48E-07  9.95E-05  0.00E+00  0.00E+00  0.00E+00  0.00E+00  4.48E-07  9.95E-05  8.43E-03  0.00000
   1492.    6.702  5.56E-07  1.24E-04  1.19E-43  2.65E-41  0.00E+00  0.00E+00  5.56E-07  1.24E-04  8.44E-03  0.00000
   1494.    6.693  5.87E-07  1.31E-04  9.91E-36  2.21E-33  0.00E+00  0.00E+00  5.87E-07  1.31E-04  8.44E-03  0.00000
   1496.    6.684  4.51E-07  1.01E-04  2.97E-35  6.65E-33  0.00E+00  0.00E+00  4.51E-07  1.01E-04  8.44E-03  0.00000
   1498.    6.676  4.14E-07  9.28E-05  9.91E-36  2.22E-33  0.00E+00  0.00E+00  4.14E-07  9.28E-05  8.44E-03  0.00000
   1500.    6.667  4.74E-07  1.07E-04  0.00E+00  0.00E+00  0.00E+00  0.00E+00  4.74E-07  1.07E-04  8.44E-03  0.00000
  iv         1505
1                                             RADIANCE(WATTS/CM2-STER-XXX)
0  FREQ   WAVLEN    PATH THERMAL      SURFACE EMISSION    SURFACE REFLECTED     TOTAL RADIANCE   INTEGRAL    TOTAL
  (CM-1) (MICRN)    (CM-1)   (MICRN)    (CM-1)   (MICRN)    (CM-1)   (MICRN)    (CM-1)   (MICRN)    (CM-1)   TRANS

   1502.    6.658  5.24E-07  1.18E-04  0.00E+00  0.00E+00  0.00E+00  0.00E+00  5.24E-07  1.18E-04  8.44E-03  0.00000
   1504.    6.649  4.62E-07  1.04E-04  0.00E+00  0.00E+00  0.00E+00  0.00E+00  4.62E-07  1.04E-04  8.44E-03  0.00000
   1506.    6.640  3.51E-07  7.96E-05  0.00E+00  0.00E+00  0.00E+00  0.00E+00  3.51E-07  7.96E-05  8.44E-03  0.00000
   1508.    6.631  3.46E-07  7.87E-05  0.00E+00  0.00E+00  0.00E+00  0.00E+00  3.46E-07  7.87E-05  8.44E-03  0.00000
   1510.    6.623  3.97E-07  9.04E-05  0.00E+00  0.00E+00  0.00E+00  0.00E+00  3.97E-07  9.04E-05  8.44E-03  0.00000
   1512.    6.614  4.44E-07  1.02E-04  0.00E+00  0.00E+00  0.00E+00  0.00E+00  4.44E-07  1.02E-04  8.44E-03  0.00000
   1514.    6.605  4.65E-07  1.07E-04  0.00E+00  0.00E+00  0.00E+00  0.00E+00  4.65E-07  1.07E-04  8.45E-03  0.00000
   1516.    6.596  3.96E-07  9.11E-05  0.00E+00  0.00E+00  0.00E+00  0.00E+00  3.96E-07  9.11E-05  8.45E-03  0.00000
   1518.    6.588  3.82E-07  8.81E-05  0.00E+00  0.00E+00  0.00E+00  0.00E+00  3.82E-07  8.81E-05  8.45E-03  0.00000
   1520.    6.579  3.63E-07  8.38E-05  0.00E+00  0.00E+00  0.00E+00  0.00E+00  3.63E-07  8.38E-05  8.45E-03  0.00000
   1522.    6.570  3.32E-07  7.69E-05  0.00E+00  0.00E+00  0.00E+00  0.00E+00  3.32E-07  7.69E-05  8.45E-03  0.00000
   1524.    6.562  3.61E-07  8.39E-05  0.00E+00  0.00E+00  0.00E+00  0.00E+00  3.61E-07  8.39E-05  8.45E-03  0.00000
   1526.    6.553  3.87E-07  9.00E-05  0.00E+00  0.00E+00  0.00E+00  0.00E+00  3.87E-07  9.00E-05  8.45E-03  0.00000
   1528.    6.545  4.18E-07  9.75E-05  0.00E+00  0.00E+00  0.00E+00  0.00E+00  4.18E-07  9.75E-05  8.45E-03  0.00000
   1530.    6.536  4.60E-07  1.08E-04  0.00E+00  0.00E+00  0.00E+00  0.00E+00  4.60E-07  1.08E-04  8.45E-03  0.00000
   1532.    6.527  4.02E-07  9.43E-05  0.00E+00  0.00E+00  0.00E+00  0.00E+00  4.02E-07  9.43E-05  8.45E-03  0.00000
   1534.    6.519  3.55E-07  8.36E-05  0.00E+00  0.00E+00  0.00E+00  0.00E+00  3.55E-07  8.36E-05  8.45E-03  0.00000
   1536.    6.510  4.03E-07  9.51E-05  0.00E+00  0.00E+00  0.00E+00  0.00E+00  4.03E-07  9.51E-05  8.45E-03  0.00000
   1538.    6.502  3.41E-07  8.06E-05  0.00E+00  0.00E+00  0.00E+00  0.00E+00  3.41E-07  8.06E-05  8.45E-03  0.00000
   1540.    6.494  2.83E-07  6.70E-05  0.00E+00  0.00E+00  0.00E+00  0.00E+00  2.83E-07  6.70E-05  8.46E-03  0.00000
   1542.    6.485  2.95E-07  7.01E-05  0.00E+00  0.00E+00  0.00E+00  0.00E+00  2.95E-07  7.01E-05  8.46E-03  0.00000
   1544.    6.477  3.30E-07  7.87E-05  0.00E+00  0.00E+00  0.00E+00  0.00E+00  3.30E-07  7.87E-05  8.46E-03  0.00000
   1546.    6.468  3.90E-07  9.32E-05  0.00E+00  0.00E+00  0.00E+00  0.00E+00  3.90E-07  9.32E-05  8.46E-03  0.00000
   1548.    6.460  4.43E-07  1.06E-04  0.00E+00  0.00E+00  0.00E+00  0.00E+00  4.43E-07  1.06E-04  8.46E-03  0.00000
   1550.    6.452  4.05E-07  9.73E-05  0.00E+00  0.00E+00  0.00E+00  0.00E+00  4.05E-07  9.73E-05  8.46E-03  0.00000
   1552.    6.443  3.96E-07  9.54E-05  0.00E+00  0.00E+00  0.00E+00  0.00E+00  3.96E-07  9.54E-05  8.46E-03  0.00000
   1554.    6.435  3.43E-07  8.28E-05  0.00E+00  0.00E+00  0.00E+00  0.00E+00  3.43E-07  8.28E-05  8.46E-03  0.00000
   1556.    6.427  3.10E-07  7.51E-05  0.00E+00  0.00E+00  0.00E+00  0.00E+00  3.10E-07  7.51E-05  8.46E-03  0.00000
   1558.    6.418  2.69E-07  6.52E-05  0.00E+00  0.00E+00  0.00E+00  0.00E+00  2.69E-07  6.52E-05  8.46E-03  0.00000
   1560.    6.410  2.72E-07  6.61E-05  0.00E+00  0.00E+00  0.00E+00  0.00E+00  2.72E-07  6.61E-05  8.46E-03  0.00000
   1562.    6.402  3.46E-07  8.45E-05  0.00E+00  0.00E+00  0.00E+00  0.00E+00  3.46E-07  8.45E-05  8.46E-03  0.00000
   1564.    6.394  3.64E-07  8.90E-05  0.00E+00  0.00E+00  0.00E+00  0.00E+00  3.64E-07  8.90E-05  8.46E-03  0.00000
   1566.    6.386  3.84E-07  9.42E-05  0.00E+00  0.00E+00  0.00E+00  0.00E+00  3.84E-07  9.42E-05  8.46E-03  0.00000
   1568.    6.378  3.57E-07  8.79E-05  0.00E+00  0.00E+00  0.00E+00  0.00E+00  3.57E-07  8.79E-05  8.46E-03  0.00000
   1570.    6.369  3.18E-07  7.84E-05  0.00E+00  0.00E+00  0.00E+00  0.00E+00  3.18E-07  7.84E-05  8.47E-03  0.00000
   1572.    6.361  3.92E-07  9.68E-05  0.00E+00  0.00E+00  0.00E+00  0.00E+00  3.92E-07  9.68E-05  8.47E-03  0.00000
   1574.    6.353  3.66E-07  9.07E-05  3.84E-28  9.51E-26  0.00E+00  0.00E+00  3.66E-07  9.07E-05  8.47E-03  0.00000
   1576.    6.345  2.81E-07  6.98E-05  1.15E-27  2.86E-25  0.00E+00  0.00E+00  2.81E-07  6.98E-05  8.47E-03  0.00000
   1578.    6.337  3.35E-07  8.33E-05  3.84E-28  9.56E-26  0.00E+00  0.00E+00  3.35E-07  8.33E-05  8.47E-03  0.00000
   1580.    6.329  4.59E-07  1.15E-04  8.48E-29  2.12E-26  0.00E+00  0.00E+00  4.59E-07  1.15E-04  8.47E-03  0.00000
   1582.    6.321  5.17E-07  1.29E-04  3.99E-24  9.99E-22  0.00E+00  0.00E+00  5.17E-07  1.29E-04  8.47E-03  0.00000
   1584.    6.313  5.58E-07  1.40E-04  1.09E-21  2.74E-19  0.00E+00  0.00E+00  5.58E-07  1.40E-04  8.47E-03  0.00000
   1586.    6.305  5.82E-07  1.46E-04  1.33E-20  3.33E-18  0.00E+00  0.00E+00  5.82E-07  1.46E-04  8.47E-03  0.00000
   1588.    6.297  5.63E-07  1.42E-04  2.58E-20  6.50E-18  0.00E+00  0.00E+00  5.63E-07  1.42E-04  8.47E-03  0.00000
   1590.    6.289  5.00E-07  1.26E-04  7.25E-21  1.83E-18  0.00E+00  0.00E+00  5.00E-07  1.26E-04  8.47E-03  0.00000
   1592.    6.281  4.77E-07  1.21E-04  7.75E-22  1.96E-19  0.00E+00  0.00E+00  4.77E-07  1.21E-04  8.48E-03  0.00000
   1594.    6.274  4.39E-07  1.11E-04  2.18E-21  5.54E-19  0.00E+00  0.00E+00  4.39E-07  1.11E-04  8.48E-03  0.00000
   1596.    6.266  4.56E-07  1.16E-04  1.03E-19  2.62E-17  0.00E+00  0.00E+00  4.56E-07  1.16E-04  8.48E-03  0.00000
   1598.    6.258  5.50E-07  1.40E-04  7.16E-19  1.83E-16  0.00E+00  0.00E+00  5.50E-07  1.40E-04  8.48E-03  0.00000
   1600.    6.250  5.23E-07  1.34E-04  5.30E-19  1.36E-16  0.00E+00  0.00E+00  5.23E-07  1.34E-04  8.48E-03  0.00000
  iv         1605
1                                             RADIANCE(WATTS/CM2-STER-XXX)
0  FREQ   WAVLEN    PATH THERMAL      SURFACE EMISSION    SURFACE REFLECTED     TOTAL RADIANCE   INTEGRAL    TOTAL
  (CM-1) (MICRN)    (CM-1)   (MICRN)    (CM-1)   (MICRN)    (CM-1)   (MICRN)    (CM-1)   (MICRN)    (CM-1)   TRANS

   1602.    6.242  4.33E-07  1.11E-04  9.51E-21  2.44E-18  0.00E+00  0.00E+00  4.33E-07  1.11E-04  8.48E-03  0.00000
   1604.    6.234  4.61E-07  1.19E-04  1.02E-21  2.62E-19  0.00E+00  0.00E+00  4.61E-07  1.19E-04  8.48E-03  0.00000
   1606.    6.227  4.60E-07  1.19E-04  1.02E-21  2.63E-19  0.00E+00  0.00E+00  4.60E-07  1.19E-04  8.48E-03  0.00000
   1608.    6.219  3.79E-07  9.80E-05  5.46E-26  1.41E-23  0.00E+00  0.00E+00  3.79E-07  9.80E-05  8.48E-03  0.00000
   1610.    6.211  3.94E-07  1.02E-04  1.68E-26  4.36E-24  0.00E+00  0.00E+00  3.94E-07  1.02E-04  8.48E-03  0.00000
   1612.    6.203  4.34E-07  1.13E-04  2.42E-28  6.28E-26  0.00E+00  0.00E+00  4.34E-07  1.13E-04  8.48E-03  0.00000
   1614.    6.196  3.65E-07  9.50E-05  2.45E-30  6.38E-28  0.00E+00  0.00E+00  3.65E-07  9.50E-05  8.49E-03  0.00000
   1616.    6.188  2.55E-07  6.66E-05  2.40E-23  6.28E-21  0.00E+00  0.00E+00  2.55E-07  6.66E-05  8.49E-03  0.00000
   1618.    6.180  2.72E-07  7.12E-05  2.40E-23  6.29E-21  0.00E+00  0.00E+00  2.72E-07  7.12E-05  8.49E-03  0.00000
   1620.    6.173  3.42E-07  8.97E-05  0.00E+00  0.00E+00  0.00E+00  0.00E+00  3.42E-07  8.97E-05  8.49E-03  0.00000
   1622.    6.165  3.00E-07  7.90E-05  3.78E-35  9.94E-33  0.00E+00  0.00E+00  3.00E-07  7.90E-05  8.49E-03  0.00000
   1624.    6.158  2.63E-07  6.95E-05  1.13E-34  2.99E-32  0.00E+00  0.00E+00  2.63E-07  6.95E-05  8.49E-03  0.00000
   1626.    6.150  2.92E-07  7.71E-05  6.39E-33  1.69E-30  0.00E+00  0.00E+00  2.92E-07  7.71E-05  8.49E-03  0.00000
   1628.    6.143  2.90E-07  7.68E-05  1.91E-32  5.05E-30  0.00E+00  0.00E+00  2.90E-07  7.68E-05  8.49E-03  0.00000
   1630.    6.135  3.58E-07  9.50E-05  6.36E-33  1.69E-30  0.00E+00  0.00E+00  3.58E-07  9.50E-05  8.49E-03  0.00000
   1632.    6.127  3.52E-07  9.38E-05  1.62E-38  4.33E-36  0.00E+00  0.00E+00  3.52E-07  9.38E-05  8.49E-03  0.00000
   1634.    6.120  2.54E-07  6.78E-05  1.40E-45  3.74E-43  0.00E+00  0.00E+00  2.54E-07  6.78E-05  8.49E-03  0.00000
   1636.    6.112  2.05E-07  5.50E-05  0.00E+00  0.00E+00  0.00E+00  0.00E+00  2.05E-07  5.50E-05  8.49E-03  0.00000
   1638.    6.105  2.46E-07  6.60E-05  0.00E+00  0.00E+00  0.00E+00  0.00E+00  2.46E-07  6.60E-05  8.49E-03  0.00000
   1640.    6.098  3.02E-07  8.12E-05  0.00E+00  0.00E+00  0.00E+00  0.00E+00  3.02E-07  8.12E-05  8.49E-03  0.00000
   1642.    6.090  3.19E-07  8.61E-05  0.00E+00  0.00E+00  0.00E+00  0.00E+00  3.19E-07  8.61E-05  8.49E-03  0.00000
   1644.    6.083  2.74E-07  7.41E-05  0.00E+00  0.00E+00  0.00E+00  0.00E+00  2.74E-07  7.41E-05  8.49E-03  0.00000
   1646.    6.075  2.03E-07  5.51E-05  0.00E+00  0.00E+00  0.00E+00  0.00E+00  2.03E-07  5.51E-05  8.49E-03  0.00000
   1648.    6.068  2.09E-07  5.67E-05  0.00E+00  0.00E+00  0.00E+00  0.00E+00  2.09E-07  5.67E-05  8.49E-03  0.00000
   1650.    6.061  2.28E-07  6.21E-05  0.00E+00  0.00E+00  0.00E+00  0.00E+00  2.28E-07  6.21E-05  8.50E-03  0.00000
   1652.    6.053  1.90E-07  5.18E-05  0.00E+00  0.00E+00  0.00E+00  0.00E+00  1.90E-07  5.18E-05  8.50E-03  0.00000
   1654.    6.046  1.80E-07  4.91E-05  0.00E+00  0.00E+00  0.00E+00  0.00E+00  1.80E-07  4.91E-05  8.50E-03  0.00000
   1656.    6.039  2.40E-07  6.59E-05  0.00E+00  0.00E+00  0.00E+00  0.00E+00  2.40E-07  6.59E-05  8.50E-03  0.00000
   1658.    6.031  3.09E-07  8.51E-05  0.00E+00  0.00E+00  0.00E+00  0.00E+00  3.09E-07  8.51E-05  8.50E-03  0.00000
   1660.    6.024  3.05E-07  8.41E-05  0.00E+00  0.00E+00  0.00E+00  0.00E+00  3.05E-07  8.41E-05  8.50E-03  0.00000
   1662.    6.017  2.36E-07  6.52E-05  3.36E-37  9.28E-35  0.00E+00  0.00E+00  2.36E-07  6.52E-05  8.50E-03  0.00000
   1664.    6.010  2.61E-07  7.22E-05  3.36E-37  9.30E-35  0.00E+00  0.00E+00  2.61E-07  7.22E-05  8.50E-03  0.00000
   1666.    6.002  3.00E-07  8.32E-05  0.00E+00  0.00E+00  0.00E+00  0.00E+00  3.00E-07  8.32E-05  8.50E-03  0.00000
   1668.    5.995  2.30E-07  6.41E-05  0.00E+00  0.00E+00  0.00E+00  0.00E+00  2.30E-07  6.41E-05  8.50E-03  0.00000
   1670.    5.988  1.87E-07  5.21E-05  0.00E+00  0.00E+00  0.00E+00  0.00E+00  1.87E-07  5.21E-05  8.50E-03  0.00000
   1672.    5.981  2.15E-07  6.02E-05  0.00E+00  0.00E+00  0.00E+00  0.00E+00  2.15E-07  6.02E-05  8.50E-03  0.00000
   1674.    5.974  2.21E-07  6.19E-05  0.00E+00  0.00E+00  0.00E+00  0.00E+00  2.21E-07  6.19E-05  8.50E-03  0.00000
   1676.    5.967  2.09E-07  5.87E-05  0.00E+00  0.00E+00  0.00E+00  0.00E+00  2.09E-07  5.87E-05  8.50E-03  0.00000
   1678.    5.959  2.48E-07  6.99E-05  0.00E+00  0.00E+00  0.00E+00  0.00E+00  2.48E-07  6.99E-05  8.50E-03  0.00000
   1680.    5.952  2.34E-07  6.61E-05  0.00E+00  0.00E+00  0.00E+00  0.00E+00  2.34E-07  6.61E-05  8.50E-03  0.00000
   1682.    5.945  2.05E-07  5.81E-05  0.00E+00  0.00E+00  0.00E+00  0.00E+00  2.05E-07  5.81E-05  8.50E-03  0.00000
   1684.    5.938  1.65E-07  4.67E-05  0.00E+00  0.00E+00  0.00E+00  0.00E+00  1.65E-07  4.67E-05  8.50E-03  0.00000
   1686.    5.931  1.91E-07  5.42E-05  0.00E+00  0.00E+00  0.00E+00  0.00E+00  1.91E-07  5.42E-05  8.50E-03  0.00000
   1688.    5.924  2.20E-07  6.26E-05  0.00E+00  0.00E+00  0.00E+00  0.00E+00  2.20E-07  6.26E-05  8.50E-03  0.00000
   1690.    5.917  2.28E-07  6.51E-05  0.00E+00  0.00E+00  0.00E+00  0.00E+00  2.28E-07  6.51E-05  8.50E-03  0.00000
   1692.    5.910  2.47E-07  7.06E-05  0.00E+00  0.00E+00  0.00E+00  0.00E+00  2.47E-07  7.06E-05  8.50E-03  0.00000
   1694.    5.903  2.07E-07  5.94E-05  0.00E+00  0.00E+00  0.00E+00  0.00E+00  2.07E-07  5.94E-05  8.51E-03  0.00000
   1696.    5.896  1.65E-07  4.74E-05  0.00E+00  0.00E+00  0.00E+00  0.00E+00  1.65E-07  4.74E-05  8.51E-03  0.00000
   1698.    5.889  1.65E-07  4.75E-05  0.00E+00  0.00E+00  0.00E+00  0.00E+00  1.65E-07  4.75E-05  8.51E-03  0.00000
   1700.    5.882  1.51E-07  4.35E-05  0.00E+00  0.00E+00  0.00E+00  0.00E+00  1.51E-07  4.35E-05  8.51E-03  0.00000
  iv         1705
1                                             RADIANCE(WATTS/CM2-STER-XXX)
0  FREQ   WAVLEN    PATH THERMAL      SURFACE EMISSION    SURFACE REFLECTED     TOTAL RADIANCE   INTEGRAL    TOTAL
  (CM-1) (MICRN)    (CM-1)   (MICRN)    (CM-1)   (MICRN)    (CM-1)   (MICRN)    (CM-1)   (MICRN)    (CM-1)   TRANS

   1702.    5.875  1.75E-07  5.08E-05  0.00E+00  0.00E+00  0.00E+00  0.00E+00  1.75E-07  5.08E-05  8.51E-03  0.00000
   1704.    5.869  1.81E-07  5.26E-05  0.00E+00  0.00E+00  0.00E+00  0.00E+00  1.81E-07  5.26E-05  8.51E-03  0.00000
   1706.    5.862  1.77E-07  5.14E-05  0.00E+00  0.00E+00  0.00E+00  0.00E+00  1.77E-07  5.14E-05  8.51E-03  0.00000
   1708.    5.855  2.24E-07  6.53E-05  3.20E-40  9.33E-38  0.00E+00  0.00E+00  2.24E-07  6.53E-05  8.51E-03  0.00000
   1710.    5.848  2.42E-07  7.08E-05  9.60E-40  2.81E-37  0.00E+00  0.00E+00  2.42E-07  7.08E-05  8.51E-03  0.00000
   1712.    5.841  2.42E-07  7.10E-05  3.20E-40  9.38E-38  0.00E+00  0.00E+00  2.42E-07  7.10E-05  8.51E-03  0.00000
   1714.    5.834  1.97E-07  5.78E-05  0.00E+00  0.00E+00  0.00E+00  0.00E+00  1.97E-07  5.78E-05  8.51E-03  0.00000
   1716.    5.828  1.57E-07  4.63E-05  0.00E+00  0.00E+00  0.00E+00  0.00E+00  1.57E-07  4.63E-05  8.51E-03  0.00000
   1718.    5.821  1.53E-07  4.51E-05  0.00E+00  0.00E+00  0.00E+00  0.00E+00  1.53E-07  4.51E-05  8.51E-03  0.00000
   1720.    5.814  2.12E-07  6.26E-05  3.34E-39  9.87E-37  0.00E+00  0.00E+00  2.12E-07  6.26E-05  8.51E-03  0.00000
   1722.    5.807  2.51E-07  7.44E-05  6.08E-33  1.80E-30  0.00E+00  0.00E+00  2.51E-07  7.44E-05  8.51E-03  0.00000
   1724.    5.800  2.71E-07  8.06E-05  5.23E-28  1.55E-25  0.00E+00  0.00E+00  2.71E-07  8.06E-05  8.51E-03  0.00000
   1726.    5.794  2.95E-07  8.78E-05  1.13E-27  3.37E-25  0.00E+00  0.00E+00  2.95E-07  8.78E-05  8.51E-03  0.00000
   1728.    5.787  2.70E-07  8.05E-05  3.12E-28  9.32E-26  0.00E+00  0.00E+00  2.70E-07  8.05E-05  8.51E-03  0.00000
   1730.    5.780  2.10E-07  6.27E-05  1.34E-31  4.01E-29  0.00E+00  0.00E+00  2.10E-07  6.27E-05  8.51E-03  0.00000
   1732.    5.774  1.71E-07  5.13E-05  2.89E-40  8.66E-38  0.00E+00  0.00E+00  1.71E-07  5.13E-05  8.51E-03  0.00000
   1734.    5.767  1.42E-07  4.27E-05  0.00E+00  0.00E+00  0.00E+00  0.00E+00  1.42E-07  4.27E-05  8.51E-03  0.00000
   1736.    5.760  1.75E-07  5.29E-05  0.00E+00  0.00E+00  0.00E+00  0.00E+00  1.75E-07  5.29E-05  8.51E-03  0.00000
   1738.    5.754  1.80E-07  5.44E-05  7.34E-32  2.22E-29  0.00E+00  0.00E+00  1.80E-07  5.44E-05  8.51E-03  0.00000
   1740.    5.747  1.67E-07  5.05E-05  2.20E-31  6.67E-29  0.00E+00  0.00E+00  1.67E-07  5.05E-05  8.51E-03  0.00000
   1742.    5.741  1.95E-07  5.90E-05  7.34E-32  2.23E-29  0.00E+00  0.00E+00  1.95E-07  5.90E-05  8.51E-03  0.00000
   1744.    5.734  1.87E-07  5.67E-05  6.73E-42  2.05E-39  0.00E+00  0.00E+00  1.87E-07  5.67E-05  8.52E-03  0.00000
   1746.    5.727  1.84E-07  5.60E-05  2.02E-41  6.15E-39  0.00E+00  0.00E+00  1.84E-07  5.60E-05  8.52E-03  0.00000
   1748.    5.721  1.62E-07  4.96E-05  4.52E-38  1.38E-35  0.00E+00  0.00E+00  1.62E-07  4.96E-05  8.52E-03  0.00000
   1750.    5.714  1.62E-07  4.95E-05  1.54E-34  4.71E-32  0.00E+00  0.00E+00  1.62E-07  4.95E-05  8.52E-03  0.00000
   1752.    5.708  1.96E-07  6.02E-05  2.09E-28  6.42E-26  0.00E+00  0.00E+00  1.96E-07  6.02E-05  8.52E-03  0.00000
   1754.    5.701  2.52E-07  7.74E-05  6.44E-28  1.98E-25  0.00E+00  0.00E+00  2.52E-07  7.74E-05  8.52E-03  0.00000
   1756.    5.695  2.22E-07  6.83E-05  6.85E-23  2.11E-20  0.00E+00  0.00E+00  2.22E-07  6.83E-05  8.52E-03  0.00000
   1758.    5.688  2.17E-07  6.70E-05  6.85E-23  2.12E-20  0.00E+00  0.00E+00  2.17E-07  6.70E-05  8.52E-03  0.00000
   1760.    5.682  2.12E-07  6.57E-05  2.70E-21  8.35E-19  0.00E+00  0.00E+00  2.12E-07  6.57E-05  8.52E-03  0.00000
   1762.    5.675  1.80E-07  5.59E-05  8.09E-21  2.51E-18  0.00E+00  0.00E+00  1.80E-07  5.59E-05  8.52E-03  0.00000
   1764.    5.669  2.39E-07  7.44E-05  2.70E-21  8.40E-19  0.00E+00  0.00E+00  2.39E-07  7.44E-05  8.52E-03  0.00000
   1766.    5.663  2.58E-07  8.04E-05  2.43E-24  7.59E-22  0.00E+00  0.00E+00  2.58E-07  8.04E-05  8.52E-03  0.00000
   1768.    5.656  1.98E-07  6.18E-05  7.11E-25  2.22E-22  0.00E+00  0.00E+00  1.98E-07  6.18E-05  8.52E-03  0.00000
   1770.    5.650  1.61E-07  5.05E-05  5.15E-32  1.61E-29  0.00E+00  0.00E+00  1.61E-07  5.05E-05  8.52E-03  0.00000
   1772.    5.643  1.28E-07  4.01E-05  1.11E-31  3.49E-29  0.00E+00  0.00E+00  1.28E-07  4.01E-05  8.52E-03  0.00000
   1774.    5.637  1.53E-07  4.81E-05  7.80E-29  2.45E-26  0.00E+00  0.00E+00  1.53E-07  4.81E-05  8.52E-03  0.00000
   1776.    5.631  2.02E-07  6.37E-05  5.87E-25  1.85E-22  0.00E+00  0.00E+00  2.02E-07  6.37E-05  8.52E-03  0.00000
   1778.    5.624  2.27E-07  7.19E-05  1.76E-24  5.56E-22  0.00E+00  0.00E+00  2.27E-07  7.19E-05  8.52E-03  0.00000
   1780.    5.618  1.89E-07  5.98E-05  2.72E-24  8.62E-22  0.00E+00  0.00E+00  1.89E-07  5.98E-05  8.52E-03  0.00000
   1782.    5.612  2.09E-07  6.64E-05  2.91E-22  9.25E-20  0.00E+00  0.00E+00  2.09E-07  6.64E-05  8.52E-03  0.00000
   1784.    5.605  2.27E-07  7.24E-05  2.03E-20  6.46E-18  0.00E+00  0.00E+00  2.27E-07  7.24E-05  8.52E-03  0.00000
   1786.    5.599  2.61E-07  8.32E-05  2.08E-17  6.63E-15  0.00E+00  0.00E+00  2.61E-07  8.32E-05  8.52E-03  0.00000
   1788.    5.593  2.72E-07  8.70E-05  2.09E-17  6.67E-15  0.00E+00  0.00E+00  2.72E-07  8.70E-05  8.52E-03  0.00000
   1790.    5.587  1.94E-07  6.23E-05  5.88E-20  1.88E-17  0.00E+00  0.00E+00  1.94E-07  6.23E-05  8.52E-03  0.00000
   1792.    5.580  1.35E-07  4.32E-05  2.78E-19  8.92E-17  0.00E+00  0.00E+00  1.35E-07  4.32E-05  8.52E-03  0.00000
   1794.    5.574  1.53E-07  4.93E-05  2.78E-19  8.94E-17  0.00E+00  0.00E+00  1.53E-07  4.93E-05  8.53E-03  0.00000
   1796.    5.568  1.85E-07  5.98E-05  5.68E-25  1.83E-22  0.00E+00  0.00E+00  1.85E-07  5.98E-05  8.53E-03  0.00000
   1798.    5.562  1.97E-07  6.38E-05  1.41E-18  4.55E-16  0.00E+00  0.00E+00  1.97E-07  6.38E-05  8.53E-03  0.00000
   1800.    5.556  1.60E-07  5.20E-05  4.23E-18  1.37E-15  0.00E+00  0.00E+00  1.60E-07  5.20E-05  8.53E-03  0.00000
  iv         1805
1                                             RADIANCE(WATTS/CM2-STER-XXX)
0  FREQ   WAVLEN    PATH THERMAL      SURFACE EMISSION    SURFACE REFLECTED     TOTAL RADIANCE   INTEGRAL    TOTAL
  (CM-1) (MICRN)    (CM-1)   (MICRN)    (CM-1)   (MICRN)    (CM-1)   (MICRN)    (CM-1)   (MICRN)    (CM-1)   TRANS

   1802.    5.549  1.94E-07  6.31E-05  4.60E-16  1.49E-13  0.00E+00  0.00E+00  1.94E-07  6.31E-05  8.53E-03  0.00000
   1804.    5.543  2.63E-07  8.58E-05  2.56E-15  8.34E-13  0.00E+00  0.00E+00  2.63E-07  8.58E-05  8.53E-03  0.00000
   1806.    5.537  2.76E-07  9.01E-05  2.25E-15  7.33E-13  0.00E+00  0.00E+00  2.76E-07  9.01E-05  8.53E-03  0.00000
   1808.    5.531  2.47E-07  8.07E-05  6.78E-16  2.22E-13  0.00E+00  0.00E+00  2.47E-07  8.07E-05  8.53E-03  0.00000
   1810.    5.525  1.92E-07  6.28E-05  1.95E-15  6.40E-13  0.00E+00  0.00E+00  1.92E-07  6.28E-05  8.53E-03  0.00000
   1812.    5.519  2.10E-07  6.88E-05  3.18E-13  1.04E-10  0.00E+00  0.00E+00  2.10E-07  6.88E-05  8.53E-03  0.00000
   1814.    5.513  3.12E-07  1.03E-04  5.89E-12  1.94E-09  0.00E+00  0.00E+00  3.12E-07  1.03E-04  8.53E-03  0.00001
   1816.    5.507  3.18E-07  1.05E-04  8.06E-12  2.66E-09  0.00E+00  0.00E+00  3.18E-07  1.05E-04  8.53E-03  0.00001
   1818.    5.501  3.24E-07  1.07E-04  2.58E-11  8.54E-09  0.00E+00  0.00E+00  3.24E-07  1.07E-04  8.53E-03  0.00003
   1820.    5.495  3.35E-07  1.11E-04  3.19E-11  1.06E-08  0.00E+00  0.00E+00  3.35E-07  1.11E-04  8.53E-03  0.00004
   1822.    5.488  2.68E-07  8.90E-05  3.94E-12  1.31E-09  0.00E+00  0.00E+00  2.68E-07  8.90E-05  8.53E-03  0.00000
   1824.    5.482  1.89E-07  6.29E-05  1.49E-16  4.96E-14  0.00E+00  0.00E+00  1.89E-07  6.29E-05  8.53E-03  0.00000
   1826.    5.476  1.67E-07  5.58E-05  9.97E-17  3.32E-14  0.00E+00  0.00E+00  1.67E-07  5.58E-05  8.53E-03  0.00000
   1828.    5.470  1.69E-07  5.63E-05  4.35E-26  1.45E-23  0.00E+00  0.00E+00  1.69E-07  5.63E-05  8.53E-03  0.00000
   1830.    5.464  1.31E-07  4.37E-05  1.99E-26  6.65E-24  0.00E+00  0.00E+00  1.31E-07  4.37E-05  8.53E-03  0.00000
   1832.    5.459  1.95E-07  6.55E-05  2.33E-15  7.83E-13  0.00E+00  0.00E+00  1.95E-07  6.55E-05  8.53E-03  0.00000
   1834.    5.453  2.55E-07  8.57E-05  1.23E-14  4.15E-12  0.00E+00  0.00E+00  2.55E-07  8.57E-05  8.53E-03  0.00000
   1836.    5.447  2.26E-07  7.62E-05  1.26E-14  4.25E-12  0.00E+00  0.00E+00  2.26E-07  7.62E-05  8.53E-03  0.00000
   1838.    5.441  2.24E-07  7.57E-05  2.48E-14  8.39E-12  0.00E+00  0.00E+00  2.24E-07  7.57E-05  8.54E-03  0.00000
   1840.    5.435  2.59E-07  8.77E-05  4.45E-14  1.51E-11  0.00E+00  0.00E+00  2.59E-07  8.77E-05  8.54E-03  0.00000
   1842.    5.429  1.91E-07  6.48E-05  1.23E-14  4.17E-12  0.00E+00  0.00E+00  1.91E-07  6.48E-05  8.54E-03  0.00000
   1844.    5.423  1.19E-07  4.04E-05  4.45E-17  1.51E-14  0.00E+00  0.00E+00  1.19E-07  4.04E-05  8.54E-03  0.00000
   1846.    5.417  1.41E-07  4.80E-05  9.84E-17  3.35E-14  0.00E+00  0.00E+00  1.41E-07  4.80E-05  8.54E-03  0.00000
   1848.    5.411  1.96E-07  6.71E-05  1.19E-12  4.08E-10  0.00E+00  0.00E+00  1.96E-07  6.71E-05  8.54E-03  0.00000
   1850.    5.405  2.81E-07  9.63E-05  5.79E-11  1.98E-08  0.00E+00  0.00E+00  2.81E-07  9.63E-05  8.54E-03  0.00008
   1852.    5.400  3.18E-07  1.09E-04  3.53E-10  1.21E-07  0.00E+00  0.00E+00  3.18E-07  1.09E-04  8.54E-03  0.00050
   1854.    5.394  3.42E-07  1.17E-04  1.56E-09  5.36E-07  0.00E+00  0.00E+00  3.43E-07  1.18E-04  8.54E-03  0.00221
   1856.    5.388  3.40E-07  1.17E-04  1.82E-09  6.26E-07  0.00E+00  0.00E+00  3.42E-07  1.18E-04  8.54E-03  0.00259
   1858.    5.382  2.87E-07  9.91E-05  5.57E-10  1.92E-07  0.00E+00  0.00E+00  2.87E-07  9.92E-05  8.54E-03  0.00080
   1860.    5.376  2.68E-07  9.26E-05  7.85E-11  2.72E-08  0.00E+00  0.00E+00  2.68E-07  9.26E-05  8.54E-03  0.00011
   1862.    5.371  2.92E-07  1.01E-04  1.60E-10  5.54E-08  0.00E+00  0.00E+00  2.93E-07  1.01E-04  8.54E-03  0.00023
   1864.    5.365  2.64E-07  9.18E-05  8.16E-11  2.84E-08  0.00E+00  0.00E+00  2.64E-07  9.19E-05  8.54E-03  0.00012
   1866.    5.359  1.69E-07  5.89E-05  1.10E-12  3.84E-10  0.00E+00  0.00E+00  1.69E-07  5.89E-05  8.54E-03  0.00000
   1868.    5.353  1.07E-07  3.74E-05  3.21E-18  1.12E-15  0.00E+00  0.00E+00  1.07E-07  3.74E-05  8.54E-03  0.00000
   1870.    5.348  1.35E-07  4.74E-05  3.00E-14  1.05E-11  0.00E+00  0.00E+00  1.35E-07  4.74E-05  8.54E-03  0.00000
   1872.    5.342  2.46E-07  8.61E-05  2.12E-10  7.41E-08  0.00E+00  0.00E+00  2.46E-07  8.62E-05  8.54E-03  0.00032
   1874.    5.336  3.32E-07  1.17E-04  2.53E-09  8.87E-07  0.00E+00  0.00E+00  3.35E-07  1.18E-04  8.54E-03  0.00384
   1876.    5.330  3.49E-07  1.23E-04  6.61E-09  2.33E-06  0.00E+00  0.00E+00  3.55E-07  1.25E-04  8.54E-03  0.01010
   1878.    5.325  3.39E-07  1.20E-04  9.28E-09  3.27E-06  0.00E+00  0.00E+00  3.49E-07  1.23E-04  8.55E-03  0.01424
   1880.    5.319  3.43E-07  1.21E-04  1.34E-08  4.74E-06  0.00E+00  0.00E+00  3.57E-07  1.26E-04  8.55E-03  0.02077
   1882.    5.313  3.51E-07  1.24E-04  1.69E-08  5.97E-06  0.00E+00  0.00E+00  3.68E-07  1.30E-04  8.55E-03  0.02619
   1884.    5.308  2.70E-07  9.57E-05  4.88E-09  1.73E-06  0.00E+00  0.00E+00  2.74E-07  9.74E-05  8.55E-03  0.00760
   1886.    5.302  2.52E-07  8.97E-05  9.84E-11  3.50E-08  0.00E+00  0.00E+00  2.52E-07  8.97E-05  8.55E-03  0.00016
   1888.    5.297  2.21E-07  7.87E-05  8.04E-11  2.87E-08  0.00E+00  0.00E+00  2.21E-07  7.87E-05  8.55E-03  0.00013
   1890.    5.291  1.62E-07  5.79E-05  2.77E-11  9.91E-09  0.00E+00  0.00E+00  1.62E-07  5.79E-05  8.55E-03  0.00004
   1892.    5.285  2.30E-07  8.24E-05  3.41E-11  1.22E-08  0.00E+00  0.00E+00  2.30E-07  8.24E-05  8.55E-03  0.00005
   1894.    5.280  2.12E-07  7.59E-05  2.30E-11  8.26E-09  0.00E+00  0.00E+00  2.12E-07  7.60E-05  8.55E-03  0.00004
   1896.    5.274  2.11E-07  7.59E-05  8.94E-10  3.21E-07  0.00E+00  0.00E+00  2.12E-07  7.62E-05  8.55E-03  0.00147
   1898.    5.269  3.06E-07  1.10E-04  1.35E-08  4.85E-06  0.00E+00  0.00E+00  3.19E-07  1.15E-04  8.55E-03  0.02221
   1900.    5.263  3.37E-07  1.22E-04  2.94E-08  1.06E-05  0.00E+00  0.00E+00  3.66E-07  1.32E-04  8.55E-03  0.04868
  iv         1905
1                                             RADIANCE(WATTS/CM2-STER-XXX)
0  FREQ   WAVLEN    PATH THERMAL      SURFACE EMISSION    SURFACE REFLECTED     TOTAL RADIANCE   INTEGRAL    TOTAL
  (CM-1) (MICRN)    (CM-1)   (MICRN)    (CM-1)   (MICRN)    (CM-1)   (MICRN)    (CM-1)   (MICRN)    (CM-1)   TRANS

   1902.    5.258  3.01E-07  1.09E-04  1.59E-08  5.76E-06  0.00E+00  0.00E+00  3.17E-07  1.15E-04  8.55E-03  0.02641
   1904.    5.252  2.53E-07  9.17E-05  3.29E-09  1.19E-06  0.00E+00  0.00E+00  2.56E-07  9.29E-05  8.55E-03  0.00550
   1906.    5.247  2.36E-07  8.59E-05  1.04E-09  3.78E-07  0.00E+00  0.00E+00  2.37E-07  8.63E-05  8.55E-03  0.00175
   1908.    5.241  1.69E-07  6.15E-05  3.33E-10  1.21E-07  0.00E+00  0.00E+00  1.69E-07  6.16E-05  8.55E-03  0.00056
   1910.    5.236  1.71E-07  6.23E-05  2.88E-10  1.05E-07  0.00E+00  0.00E+00  1.71E-07  6.24E-05  8.55E-03  0.00050
   1912.    5.230  2.54E-07  9.28E-05  2.11E-09  7.70E-07  0.00E+00  0.00E+00  2.56E-07  9.36E-05  8.55E-03  0.00364
   1914.    5.225  2.71E-07  9.92E-05  2.41E-09  8.83E-07  0.00E+00  0.00E+00  2.73E-07  1.00E-04  8.55E-03  0.00417
   1916.    5.219  2.12E-07  7.78E-05  4.97E-10  1.82E-07  0.00E+00  0.00E+00  2.12E-07  7.80E-05  8.56E-03  0.00086
   1918.    5.214  1.32E-07  4.85E-05  3.41E-12  1.25E-09  0.00E+00  0.00E+00  1.32E-07  4.85E-05  8.56E-03  0.00001
   1920.    5.208  1.56E-07  5.74E-05  3.70E-14  1.36E-11  0.00E+00  0.00E+00  1.56E-07  5.74E-05  8.56E-03  0.00000
   1922.    5.203  1.46E-07  5.41E-05  2.54E-14  9.38E-12  0.00E+00  0.00E+00  1.46E-07  5.41E-05  8.56E-03  0.00000
   1924.    5.198  1.70E-07  6.29E-05  7.88E-10  2.92E-07  0.00E+00  0.00E+00  1.71E-07  6.31E-05  8.56E-03  0.00142
   1926.    5.192  2.70E-07  1.00E-04  1.04E-08  3.86E-06  0.00E+00  0.00E+00  2.81E-07  1.04E-04  8.56E-03  0.01890
   1928.    5.187  3.05E-07  1.13E-04  4.28E-08  1.59E-05  0.00E+00  0.00E+00  3.48E-07  1.29E-04  8.56E-03  0.07811
   1930.    5.181  3.01E-07  1.12E-04  7.08E-08  2.64E-05  0.00E+00  0.00E+00  3.72E-07  1.39E-04  8.56E-03  0.12975
   1932.    5.176  2.47E-07  9.23E-05  3.43E-08  1.28E-05  0.00E+00  0.00E+00  2.82E-07  1.05E-04  8.56E-03  0.06308
   1934.    5.171  2.40E-07  8.97E-05  2.51E-08  9.40E-06  0.00E+00  0.00E+00  2.65E-07  9.91E-05  8.56E-03  0.04686
   1936.    5.165  2.90E-07  1.09E-04  5.38E-08  2.02E-05  0.00E+00  0.00E+00  3.44E-07  1.29E-04  8.56E-03  0.10069
   1938.    5.160  2.95E-07  1.11E-04  3.41E-08  1.28E-05  0.00E+00  0.00E+00  3.29E-07  1.24E-04  8.56E-03  0.06415
   1940.    5.155  2.53E-07  9.51E-05  9.17E-09  3.45E-06  0.00E+00  0.00E+00  2.62E-07  9.86E-05  8.56E-03  0.01731
   1942.    5.149  1.55E-07  5.84E-05  4.42E-10  1.67E-07  0.00E+00  0.00E+00  1.55E-07  5.85E-05  8.56E-03  0.00084
   1944.    5.144  1.34E-07  5.06E-05  2.14E-13  8.11E-11  0.00E+00  0.00E+00  1.34E-07  5.06E-05  8.56E-03  0.00000
   1946.    5.139  1.69E-07  6.40E-05  2.53E-09  9.58E-07  0.00E+00  0.00E+00  1.72E-07  6.50E-05  8.56E-03  0.00493
   1948.    5.133  2.50E-07  9.49E-05  1.73E-08  6.56E-06  0.00E+00  0.00E+00  2.67E-07  1.01E-04  8.56E-03  0.03380
   1950.    5.128  2.79E-07  1.06E-04  5.00E-08  1.90E-05  0.00E+00  0.00E+00  3.29E-07  1.25E-04  8.56E-03  0.09848
   1952.    5.123  2.70E-07  1.03E-04  7.81E-08  2.98E-05  0.00E+00  0.00E+00  3.48E-07  1.33E-04  8.56E-03  0.15448
   1954.    5.118  2.36E-07  9.02E-05  3.44E-08  1.31E-05  0.00E+00  0.00E+00  2.71E-07  1.03E-04  8.56E-03  0.06815
   1956.    5.112  2.31E-07  8.82E-05  1.39E-08  5.32E-06  0.00E+00  0.00E+00  2.44E-07  9.35E-05  8.57E-03  0.02802
   1958.    5.107  2.59E-07  9.93E-05  5.95E-08  2.28E-05  0.00E+00  0.00E+00  3.19E-07  1.22E-04  8.57E-03  0.12034
   1960.    5.102  2.44E-07  9.38E-05  5.68E-08  2.18E-05  0.00E+00  0.00E+00  3.01E-07  1.16E-04  8.57E-03  0.11518
   1962.    5.097  2.48E-07  9.54E-05  3.55E-08  1.37E-05  0.00E+00  0.00E+00  2.83E-07  1.09E-04  8.57E-03  0.07274
   1964.    5.092  2.55E-07  9.82E-05  4.19E-08  1.62E-05  0.00E+00  0.00E+00  2.96E-07  1.14E-04  8.57E-03  0.08622
   1966.    5.086  1.75E-07  6.77E-05  8.13E-09  3.14E-06  0.00E+00  0.00E+00  1.83E-07  7.09E-05  8.57E-03  0.01676
   1968.    5.081  1.81E-07  7.00E-05  9.11E-09  3.53E-06  0.00E+00  0.00E+00  1.90E-07  7.36E-05  8.57E-03  0.01916
   1970.    5.076  2.42E-07  9.40E-05  7.43E-08  2.88E-05  0.00E+00  0.00E+00  3.16E-07  1.23E-04  8.57E-03  0.15685
   1972.    5.071  2.13E-07  8.29E-05  1.68E-07  6.51E-05  0.00E+00  0.00E+00  3.81E-07  1.48E-04  8.57E-03  0.35540
   1974.    5.066  1.93E-07  7.52E-05  1.86E-07  7.23E-05  0.00E+00  0.00E+00  3.78E-07  1.47E-04  8.57E-03  0.39571
   1976.    5.061  2.06E-07  8.05E-05  1.33E-07  5.21E-05  0.00E+00  0.00E+00  3.40E-07  1.33E-04  8.57E-03  0.28677
   1978.    5.056  1.90E-07  7.44E-05  1.79E-07  6.98E-05  0.00E+00  0.00E+00  3.69E-07  1.44E-04  8.57E-03  0.38684
   1980.    5.051  1.77E-07  6.92E-05  2.05E-07  8.05E-05  0.00E+00  0.00E+00  3.82E-07  1.50E-04  8.57E-03  0.44736
   1982.    5.045  1.91E-07  7.52E-05  1.78E-07  7.01E-05  0.00E+00  0.00E+00  3.70E-07  1.45E-04  8.57E-03  0.39132
   1984.    5.040  2.07E-07  8.13E-05  1.54E-07  6.08E-05  0.00E+00  0.00E+00  3.61E-07  1.42E-04  8.57E-03  0.34107
   1986.    5.035  2.21E-07  8.70E-05  7.53E-08  2.97E-05  0.00E+00  0.00E+00  2.96E-07  1.17E-04  8.57E-03  0.16701
   1988.    5.030  1.90E-07  7.52E-05  1.13E-08  4.47E-06  0.00E+00  0.00E+00  2.02E-07  7.97E-05  8.58E-03  0.02521
   1990.    5.025  1.77E-07  6.99E-05  1.25E-09  4.94E-07  0.00E+00  0.00E+00  1.78E-07  7.04E-05  8.58E-03  0.00282
   1992.    5.020  1.37E-07  5.43E-05  6.47E-10  2.57E-07  0.00E+00  0.00E+00  1.37E-07  5.45E-05  8.58E-03  0.00147
   1994.    5.015  1.90E-07  7.54E-05  2.71E-08  1.08E-05  0.00E+00  0.00E+00  2.17E-07  8.62E-05  8.58E-03  0.06226
   1996.    5.010  2.28E-07  9.07E-05  8.17E-08  3.25E-05  0.00E+00  0.00E+00  3.09E-07  1.23E-04  8.58E-03  0.18829
   1998.    5.005  2.12E-07  8.45E-05  5.71E-08  2.28E-05  0.00E+00  0.00E+00  2.69E-07  1.07E-04  8.58E-03  0.13217
   2000.    5.000  1.89E-07  7.58E-05  1.01E-07  4.04E-05  0.00E+00  0.00E+00  2.91E-07  1.16E-04  8.58E-03  0.23683
  iv         2005
1                                             RADIANCE(WATTS/CM2-STER-XXX)
0  FREQ   WAVLEN    PATH THERMAL      SURFACE EMISSION    SURFACE REFLECTED     TOTAL RADIANCE   INTEGRAL    TOTAL
  (CM-1) (MICRN)    (CM-1)   (MICRN)    (CM-1)   (MICRN)    (CM-1)   (MICRN)    (CM-1)   (MICRN)    (CM-1)   TRANS

   2002.    4.995  1.58E-07  6.32E-05  2.02E-07  8.10E-05  0.00E+00  0.00E+00  3.60E-07  1.44E-04  8.58E-03  0.47566
   2004.    4.990  1.43E-07  5.75E-05  2.22E-07  8.90E-05  0.00E+00  0.00E+00  3.65E-07  1.46E-04  8.58E-03  0.52521
   2006.    4.985  1.78E-07  7.18E-05  1.41E-07  5.67E-05  0.00E+00  0.00E+00  3.19E-07  1.28E-04  8.58E-03  0.33565
   2008.    4.980  1.99E-07  8.03E-05  4.87E-08  1.96E-05  0.00E+00  0.00E+00  2.48E-07  1.00E-04  8.58E-03  0.11684
   2010.    4.975  1.84E-07  7.44E-05  1.04E-07  4.22E-05  0.00E+00  0.00E+00  2.89E-07  1.17E-04  8.58E-03  0.25364
   2012.    4.970  1.63E-07  6.59E-05  1.78E-07  7.20E-05  0.00E+00  0.00E+00  3.41E-07  1.38E-04  8.58E-03  0.43372
   2014.    4.965  1.81E-07  7.34E-05  1.24E-07  5.03E-05  0.00E+00  0.00E+00  3.05E-07  1.24E-04  8.58E-03  0.30369
   2016.    4.960  1.62E-07  6.59E-05  2.81E-08  1.14E-05  0.00E+00  0.00E+00  1.90E-07  7.73E-05  8.58E-03  0.06901
   2018.    4.955  1.40E-07  5.72E-05  7.08E-10  2.88E-07  0.00E+00  0.00E+00  1.41E-07  5.75E-05  8.58E-03  0.00177
   2020.    4.950  1.83E-07  7.46E-05  4.04E-08  1.65E-05  0.00E+00  0.00E+00  2.23E-07  9.11E-05  8.58E-03  0.10173
   2022.    4.946  1.93E-07  7.88E-05  7.85E-08  3.21E-05  0.00E+00  0.00E+00  2.71E-07  1.11E-04  8.58E-03  0.19821
   2024.    4.941  1.90E-07  7.76E-05  8.51E-08  3.49E-05  0.00E+00  0.00E+00  2.75E-07  1.12E-04  8.58E-03  0.21674
   2026.    4.936  1.76E-07  7.23E-05  9.34E-08  3.83E-05  0.00E+00  0.00E+00  2.70E-07  1.11E-04  8.59E-03  0.23925
   2028.    4.931  1.44E-07  5.92E-05  1.41E-07  5.80E-05  0.00E+00  0.00E+00  2.85E-07  1.17E-04  8.59E-03  0.36495
   2030.    4.926  1.03E-07  4.23E-05  2.35E-07  9.68E-05  0.00E+00  0.00E+00  3.38E-07  1.39E-04  8.59E-03  0.61083
   2032.    4.921  9.48E-08  3.91E-05  2.40E-07  9.92E-05  0.00E+00  0.00E+00  3.35E-07  1.38E-04  8.59E-03  0.62886
   2034.    4.916  1.23E-07  5.08E-05  1.89E-07  7.81E-05  0.00E+00  0.00E+00  3.11E-07  1.29E-04  8.59E-03  0.49763
   2036.    4.912  1.26E-07  5.23E-05  1.66E-07  6.89E-05  0.00E+00  0.00E+00  2.92E-07  1.21E-04  8.59E-03  0.44121
   2038.    4.907  1.47E-07  6.12E-05  1.12E-07  4.65E-05  0.00E+00  0.00E+00  2.59E-07  1.08E-04  8.59E-03  0.29904
   2040.    4.902  1.55E-07  6.46E-05  6.10E-08  2.54E-05  0.00E+00  0.00E+00  2.16E-07  8.99E-05  8.59E-03  0.16390
   2042.    4.897  1.60E-07  6.67E-05  1.38E-08  5.76E-06  0.00E+00  0.00E+00  1.74E-07  7.24E-05  8.59E-03  0.03747
   2044.    4.892  1.51E-07  6.30E-05  6.03E-08  2.52E-05  0.00E+00  0.00E+00  2.11E-07  8.83E-05  8.59E-03  0.16544
   2046.    4.888  1.38E-07  5.76E-05  1.05E-07  4.40E-05  0.00E+00  0.00E+00  2.43E-07  1.02E-04  8.59E-03  0.28940
   2048.    4.883  1.15E-07  4.83E-05  1.29E-07  5.39E-05  0.00E+00  0.00E+00  2.44E-07  1.02E-04  8.59E-03  0.35661
   2050.    4.878  9.17E-08  3.86E-05  1.57E-07  6.59E-05  0.00E+00  0.00E+00  2.48E-07  1.04E-04  8.59E-03  0.43748
   2052.    4.873  9.45E-08  3.98E-05  1.40E-07  5.91E-05  0.00E+00  0.00E+00  2.35E-07  9.89E-05  8.59E-03  0.39481
   2054.    4.869  9.46E-08  3.99E-05  1.36E-07  5.72E-05  0.00E+00  0.00E+00  2.30E-07  9.71E-05  8.59E-03  0.38416
   2056.    4.864  8.61E-08  3.64E-05  1.47E-07  6.22E-05  0.00E+00  0.00E+00  2.33E-07  9.86E-05  8.59E-03  0.41995
   2058.    4.859  9.67E-08  4.10E-05  1.20E-07  5.08E-05  0.00E+00  0.00E+00  2.17E-07  9.18E-05  8.59E-03  0.34419
   2060.    4.854  1.14E-07  4.85E-05  6.90E-08  2.93E-05  0.00E+00  0.00E+00  1.83E-07  7.78E-05  8.59E-03  0.19941
   2062.    4.850  1.16E-07  4.94E-05  6.85E-08  2.91E-05  0.00E+00  0.00E+00  1.85E-07  7.86E-05  8.59E-03  0.19974
   2064.    4.845  1.11E-07  4.72E-05  2.94E-08  1.25E-05  0.00E+00  0.00E+00  1.40E-07  5.97E-05  8.59E-03  0.08585
   2066.    4.840  1.10E-07  4.71E-05  3.56E-08  1.52E-05  0.00E+00  0.00E+00  1.46E-07  6.23E-05  8.59E-03  0.10569
   2068.    4.836  1.00E-07  4.28E-05  1.02E-07  4.36E-05  0.00E+00  0.00E+00  2.02E-07  8.64E-05  8.59E-03  0.30421
   2070.    4.831  7.84E-08  3.36E-05  1.41E-07  6.04E-05  0.00E+00  0.00E+00  2.19E-07  9.40E-05  8.60E-03  0.42270
   2072.    4.826  9.18E-08  3.94E-05  1.18E-07  5.08E-05  0.00E+00  0.00E+00  2.10E-07  9.02E-05  8.60E-03  0.35694
   2074.    4.822  1.10E-07  4.72E-05  8.83E-08  3.80E-05  0.00E+00  0.00E+00  1.98E-07  8.52E-05  8.60E-03  0.26858
   2076.    4.817  8.30E-08  3.58E-05  6.95E-08  3.00E-05  0.00E+00  0.00E+00  1.52E-07  6.57E-05  8.60E-03  0.21265
   2078.    4.812  6.73E-08  2.91E-05  3.40E-08  1.47E-05  0.00E+00  0.00E+00  1.01E-07  4.37E-05  8.60E-03  0.10505
   2080.    4.808  8.59E-08  3.72E-05  8.67E-08  3.75E-05  0.00E+00  0.00E+00  1.73E-07  7.47E-05  8.60E-03  0.26984
   2082.    4.803  8.02E-08  3.48E-05  1.29E-07  5.59E-05  0.00E+00  0.00E+00  2.09E-07  9.07E-05  8.60E-03  0.40443
   2084.    4.798  6.48E-08  2.81E-05  1.60E-07  6.95E-05  0.00E+00  0.00E+00  2.25E-07  9.77E-05  8.60E-03  0.50521
   2086.    4.794  8.19E-08  3.56E-05  1.32E-07  5.72E-05  0.00E+00  0.00E+00  2.13E-07  9.29E-05  8.60E-03  0.41756
   2088.    4.789  1.08E-07  4.72E-05  8.31E-08  3.62E-05  0.00E+00  0.00E+00  1.91E-07  8.34E-05  8.60E-03  0.26549
   2090.    4.785  1.14E-07  4.96E-05  5.47E-08  2.39E-05  0.00E+00  0.00E+00  1.68E-07  7.35E-05  8.60E-03  0.17618
   2092.    4.780  9.99E-08  4.37E-05  7.85E-08  3.44E-05  0.00E+00  0.00E+00  1.78E-07  7.81E-05  8.60E-03  0.25517
   2094.    4.776  7.83E-08  3.43E-05  1.10E-07  4.80E-05  0.00E+00  0.00E+00  1.88E-07  8.24E-05  8.60E-03  0.35858
   2096.    4.771  6.92E-08  3.04E-05  1.44E-07  6.34E-05  0.00E+00  0.00E+00  2.14E-07  9.38E-05  8.60E-03  0.47555
   2098.    4.766  6.56E-08  2.89E-05  1.52E-07  6.70E-05  0.00E+00  0.00E+00  2.18E-07  9.58E-05  8.60E-03  0.50488
   2100.    4.762  6.66E-08  2.94E-05  1.48E-07  6.52E-05  0.00E+00  0.00E+00  2.14E-07  9.46E-05  8.60E-03  0.49413
  iv         2105
1                                             RADIANCE(WATTS/CM2-STER-XXX)
0  FREQ   WAVLEN    PATH THERMAL      SURFACE EMISSION    SURFACE REFLECTED     TOTAL RADIANCE   INTEGRAL    TOTAL
  (CM-1) (MICRN)    (CM-1)   (MICRN)    (CM-1)   (MICRN)    (CM-1)   (MICRN)    (CM-1)   (MICRN)    (CM-1)   TRANS

   2102.    4.757  4.85E-08  2.14E-05  1.79E-07  7.90E-05  0.00E+00  0.00E+00  2.27E-07  1.00E-04  8.60E-03  0.60206
   2104.    4.753  4.37E-08  1.93E-05  1.84E-07  8.14E-05  0.00E+00  0.00E+00  2.28E-07  1.01E-04  8.60E-03  0.62300
   2106.    4.748  6.59E-08  2.92E-05  1.38E-07  6.14E-05  0.00E+00  0.00E+00  2.04E-07  9.06E-05  8.60E-03  0.47239
   2108.    4.744  6.11E-08  2.71E-05  1.42E-07  6.31E-05  0.00E+00  0.00E+00  2.03E-07  9.02E-05  8.60E-03  0.48863
   2110.    4.739  3.95E-08  1.76E-05  1.89E-07  8.40E-05  0.00E+00  0.00E+00  2.28E-07  1.02E-04  8.60E-03  0.65429
   2112.    4.735  4.99E-08  2.22E-05  1.89E-07  8.44E-05  0.00E+00  0.00E+00  2.39E-07  1.07E-04  8.60E-03  0.65989
   2114.    4.730  9.41E-08  4.21E-05  9.36E-08  4.18E-05  0.00E+00  0.00E+00  1.88E-07  8.39E-05  8.60E-03  0.32797
   2116.    4.726  8.76E-08  3.92E-05  8.94E-08  4.00E-05  0.00E+00  0.00E+00  1.77E-07  7.92E-05  8.60E-03  0.31745
   2118.    4.721  4.27E-08  1.92E-05  1.61E-07  7.22E-05  0.00E+00  0.00E+00  2.04E-07  9.14E-05  8.60E-03  0.57413
   2120.    4.717  4.29E-08  1.93E-05  1.52E-07  6.82E-05  0.00E+00  0.00E+00  1.95E-07  8.75E-05  8.61E-03  0.54460
   2122.    4.713  5.82E-08  2.62E-05  1.28E-07  5.75E-05  0.00E+00  0.00E+00  1.86E-07  8.37E-05  8.61E-03  0.46229
   2124.    4.708  6.24E-08  2.82E-05  1.21E-07  5.45E-05  0.00E+00  0.00E+00  1.83E-07  8.27E-05  8.61E-03  0.44051
   2126.    4.704  4.18E-08  1.89E-05  1.59E-07  7.19E-05  0.00E+00  0.00E+00  2.01E-07  9.08E-05  8.61E-03  0.58453
   2128.    4.699  3.36E-08  1.52E-05  1.70E-07  7.71E-05  0.00E+00  0.00E+00  2.04E-07  9.23E-05  8.61E-03  0.62942
   2130.    4.695  3.97E-08  1.80E-05  1.63E-07  7.41E-05  0.00E+00  0.00E+00  2.03E-07  9.21E-05  8.61E-03  0.60872
   2132.    4.690  2.60E-08  1.18E-05  2.11E-07  9.60E-05  0.00E+00  0.00E+00  2.37E-07  1.08E-04  8.61E-03  0.79273
   2134.    4.686  3.32E-08  1.51E-05  2.08E-07  9.47E-05  0.00E+00  0.00E+00  2.41E-07  1.10E-04  8.61E-03  0.78527
   2136.    4.682  8.45E-08  3.86E-05  1.13E-07  5.15E-05  0.00E+00  0.00E+00  1.97E-07  9.00E-05  8.61E-03  0.42859
   2138.    4.677  1.06E-07  4.84E-05  8.08E-08  3.70E-05  0.00E+00  0.00E+00  1.87E-07  8.53E-05  8.61E-03  0.31044
   2140.    4.673  7.14E-08  3.27E-05  1.48E-07  6.76E-05  0.00E+00  0.00E+00  2.19E-07  1.00E-04  8.61E-03  0.57094
   2142.    4.669  3.44E-08  1.58E-05  2.08E-07  9.53E-05  0.00E+00  0.00E+00  2.42E-07  1.11E-04  8.61E-03  0.80856
   2144.    4.664  4.75E-08  2.18E-05  1.80E-07  8.26E-05  0.00E+00  0.00E+00  2.27E-07  1.04E-04  8.61E-03  0.70417
   2146.    4.660  7.21E-08  3.32E-05  1.40E-07  6.43E-05  0.00E+00  0.00E+00  2.12E-07  9.75E-05  8.61E-03  0.55107
   2148.    4.655  5.55E-08  2.56E-05  1.68E-07  7.76E-05  0.00E+00  0.00E+00  2.24E-07  1.03E-04  8.61E-03  0.66949
   2150.    4.651  3.30E-08  1.52E-05  2.01E-07  9.30E-05  0.00E+00  0.00E+00  2.34E-07  1.08E-04  8.61E-03  0.80658
   2152.    4.647  4.33E-08  2.01E-05  1.80E-07  8.33E-05  0.00E+00  0.00E+00  2.23E-07  1.03E-04  8.61E-03  0.72534
   2154.    4.643  4.18E-08  1.94E-05  1.80E-07  8.34E-05  0.00E+00  0.00E+00  2.22E-07  1.03E-04  8.61E-03  0.73124
   2156.    4.638  3.75E-08  1.74E-05  1.87E-07  8.70E-05  0.00E+00  0.00E+00  2.25E-07  1.04E-04  8.61E-03  0.76612
   2158.    4.634  3.15E-08  1.47E-05  1.94E-07  9.01E-05  0.00E+00  0.00E+00  2.25E-07  1.05E-04  8.61E-03  0.79871
   2160.    4.630  3.87E-08  1.80E-05  1.80E-07  8.41E-05  0.00E+00  0.00E+00  2.19E-07  1.02E-04  8.61E-03  0.74876
   2162.    4.625  6.74E-08  3.15E-05  1.29E-07  6.03E-05  0.00E+00  0.00E+00  1.96E-07  9.18E-05  8.61E-03  0.54015
   2164.    4.621  4.37E-08  2.05E-05  1.66E-07  7.79E-05  0.00E+00  0.00E+00  2.10E-07  9.83E-05  8.61E-03  0.70195
   2166.    4.617  2.25E-08  1.06E-05  1.99E-07  9.35E-05  0.00E+00  0.00E+00  2.22E-07  1.04E-04  8.62E-03  0.84639
   2168.    4.613  1.92E-08  9.01E-06  2.02E-07  9.50E-05  0.00E+00  0.00E+00  2.21E-07  1.04E-04  8.62E-03  0.86501
   2170.    4.608  2.74E-08  1.29E-05  1.86E-07  8.77E-05  0.00E+00  0.00E+00  2.14E-07  1.01E-04  8.62E-03  0.80192
   2172.    4.604  3.37E-08  1.59E-05  1.75E-07  8.28E-05  0.00E+00  0.00E+00  2.09E-07  9.87E-05  8.62E-03  0.76202
   2174.    4.600  2.24E-08  1.06E-05  1.92E-07  9.06E-05  0.00E+00  0.00E+00  2.14E-07  1.01E-04  8.62E-03  0.83875
   2176.    4.596  1.91E-08  9.04E-06  1.94E-07  9.21E-05  0.00E+00  0.00E+00  2.14E-07  1.01E-04  8.62E-03  0.85663
   2178.    4.591  1.86E-08  8.81E-06  1.93E-07  9.17E-05  0.00E+00  0.00E+00  2.12E-07  1.01E-04  8.62E-03  0.85780
   2180.    4.587  3.03E-08  1.44E-05  1.73E-07  8.21E-05  0.00E+00  0.00E+00  2.03E-07  9.65E-05  8.62E-03  0.77238
   2182.    4.583  2.99E-08  1.43E-05  1.72E-07  8.17E-05  0.00E+00  0.00E+00  2.02E-07  9.60E-05  8.62E-03  0.77336
   2184.    4.579  2.85E-08  1.36E-05  1.73E-07  8.26E-05  0.00E+00  0.00E+00  2.02E-07  9.62E-05  8.62E-03  0.78523
   2186.    4.575  4.45E-08  2.13E-05  1.46E-07  6.99E-05  0.00E+00  0.00E+00  1.91E-07  9.12E-05  8.62E-03  0.66823
   2188.    4.570  3.85E-08  1.84E-05  1.54E-07  7.35E-05  0.00E+00  0.00E+00  1.92E-07  9.20E-05  8.62E-03  0.70748
   2190.    4.566  2.42E-08  1.16E-05  1.75E-07  8.38E-05  0.00E+00  0.00E+00  1.99E-07  9.54E-05  8.62E-03  0.81018
   2192.    4.562  2.57E-08  1.23E-05  1.70E-07  8.19E-05  0.00E+00  0.00E+00  1.96E-07  9.42E-05  8.62E-03  0.79609
   2194.    4.558  2.76E-08  1.33E-05  1.65E-07  7.96E-05  0.00E+00  0.00E+00  1.93E-07  9.29E-05  8.62E-03  0.77843
   2196.    4.554  2.00E-08  9.66E-06  1.75E-07  8.42E-05  0.00E+00  0.00E+00  1.95E-07  9.39E-05  8.62E-03  0.82834
   2198.    4.550  2.55E-08  1.23E-05  1.65E-07  7.95E-05  0.00E+00  0.00E+00  1.90E-07  9.19E-05  8.62E-03  0.78586
   2200.    4.545  3.29E-08  1.59E-05  1.51E-07  7.31E-05  0.00E+00  0.00E+00  1.84E-07  8.90E-05  8.62E-03  0.72660
0INTEGRATED ABSORPTION FROM    2 TO 2200 CM-1 =   1757.09 CM-1
 AVERAGE TRANSMITTANCE =0.2006

0INTEGRATED RADIANCE =  8.622E-03 WATTS CM-2 STER-1
 MINIMUM RADIANCE    =  1.171E-09 WATTS CM-2 STER-1 (CM-1)-1 AT        2.0 CM-1
 MAXIMUM RADIANCE    =  1.181E-05 WATTS CM-2 STER-1 (CM-1)-1 AT      560.0 CM-1
 BOUNDARY TEMPERATURE =     288.03 K
 BOUNDARY EMISSIVITY =       0.971
0 CARD 5 *****    0


