*****  MODTRAN3 Version 1.3  12/1/95  *****
0 CARD 1  *****T   6    3    1    0    0    0    0    0    0    0    0    0   -1   0.000  -1.00
 co2mx co2rat ch4rat h2orat t_o3rat s_o3rat scalefreon    800.00000       2.4242425       1.0000000       1.0000000       1.0000000       1.0000000       1.0000000    
0 CARD 2  *****    0    0    0    0    0    0     0.000     0.000     0.000     0.000     0.000
0 CARD 3  *****    70.000     0.000   180.000     0.000     0.000     0.000    0
0 CARD 4  *****         2      2200         2         3
0 PROGRAM WILL COMPUTE RADIANCE                
0 ATMOSPHERIC MODEL
          TEMPERATURE =    6     1976 U S STANDARD   
          WATER VAPOR =    6     1976 U S STANDARD   
          OZONE       =    6     1976 U S STANDARD   
                      M4 =     6 M5 =     6 M6 =     6 MDEF =     1
0 SLANT PATH TO SPACE
          H1    =     70.000 KM
          HMIN  =      0.000 KM
          ANGLE =    180.000 DEG
0 FREQUENCY RANGE
             IV1 =         2 CM-1  (   5000.00 MICROMETERS)
             IV2 =      2200 CM-1  (      4.55 MICROMETERS)
             IDV =         2 CM-1
           IFWHM =         3 CM-1
1
  ATMOSPHERIC PROFILES

   I     Z       P       T        N2       CNTMSLF MOL SCAT     N-1     O3 (UV)  O2 (UV)
        (KM)    (MB)    (K)            (MOL/CM2 KM)   (-)       (-)  (ATM CM/KM) (ATM CM/KM)

   1     0.00 1013.000  289.3  8.182E-01 1.769E+20 9.441E-01 2.712E-04 2.510E-03 3.517E+04
   2     1.00  898.800  282.8  6.741E-01 9.009E+19 8.569E-01 2.462E-04 2.510E-03 3.063E+04
   3     2.00  795.000  276.3  5.525E-01 4.324E+19 7.758E-01 2.229E-04 2.509E-03 2.664E+04
   4     3.00  701.200  269.8  4.508E-01 1.677E+19 7.007E-01 2.014E-04 2.323E-03 2.315E+04
   5     4.00  616.600  263.3  3.660E-01 6.310E+18 6.314E-01 1.815E-04 2.137E-03 2.010E+04
   6     5.00  540.500  256.8  2.957E-01 2.153E+18 5.675E-01 1.632E-04 2.137E-03 1.744E+04
   7     6.00  472.200  250.3  2.375E-01 7.657E+17 5.087E-01 1.463E-04 2.090E-03 1.511E+04
   8     7.00  411.100  243.8  1.898E-01 2.359E+17 4.546E-01 1.307E-04 2.276E-03 1.308E+04
   9     8.00  356.500  237.3  1.506E-01 7.774E+16 4.051E-01 1.165E-04 2.415E-03 1.130E+04
  10     9.00  308.000  230.8  1.189E-01 1.156E+16 3.598E-01 1.035E-04 3.297E-03 9.759E+03
  11    10.00  265.000  224.4  9.308E-02 1.789E+15 3.184E-01 9.157E-05 4.178E-03 8.408E+03
  12    11.00  227.000  217.9  7.243E-02 3.761E+14 2.809E-01 8.078E-05 6.032E-03 7.234E+03
  13    12.00  194.000  217.8  5.295E-02 7.653E+13 2.402E-01 6.907E-05 7.428E-03 6.016E+03
  14    13.00  165.800  217.8  3.868E-02 1.811E+13 2.053E-01 5.903E-05 7.889E-03 5.017E+03
  15    14.00  141.700  217.8  2.825E-02 3.948E+12 1.754E-01 5.045E-05 8.818E-03 4.197E+03
  16    15.00  121.100  217.8  2.063E-02 2.052E+12 1.499E-01 4.312E-05 9.746E-03 3.521E+03
  17    16.00  103.500  217.8  1.507E-02 9.356E+11 1.281E-01 3.685E-05 1.114E-02 2.961E+03
  18    17.00   88.500  217.8  1.102E-02 6.498E+11 1.096E-01 3.151E-05 1.300E-02 2.496E+03
  19    18.00   75.650  217.8  8.052E-03 4.687E+11 9.365E-02 2.693E-05 1.485E-02 2.108E+03
  20    19.00   64.670  217.8  5.884E-03 3.470E+11 8.006E-02 2.302E-05 1.624E-02 1.783E+03
  21    20.00   55.290  217.8  4.301E-03 2.603E+11 6.845E-02 1.969E-05 1.764E-02 1.511E+03
  22    21.00   47.290  218.7  3.121E-03 1.958E+11 5.830E-02 1.677E-05 1.764E-02 1.277E+03
  23    22.00   40.470  219.7  2.265E-03 1.483E+11 4.967E-02 1.428E-05 1.810E-02 1.080E+03
  24    23.00   34.670  220.7  1.647E-03 1.149E+11 4.236E-02 1.218E-05 1.764E-02 9.157E+02
  25    24.00   29.720  221.7  1.199E-03 8.753E+10 3.614E-02 1.040E-05 1.671E-02 7.776E+02
  26    25.00   25.490  222.7  8.744E-04 6.744E+10 3.086E-02 8.876E-06 1.578E-02 6.611E+02
  27    30.00   11.970  227.6  1.846E-04 1.608E+10 1.418E-02 4.078E-06 9.286E-03 2.997E+02
  28    35.00    5.746  237.6  3.903E-05 3.595E+09 6.520E-03 1.875E-06 5.107E-03 1.369E+02
  29    40.00    2.871  251.5  8.697E-06 8.253E+08 3.078E-03 8.852E-07 2.245E-03 6.445E+01
  30    45.00    1.491  265.3  2.108E-06 2.126E+08 1.515E-03 4.358E-07 7.950E-04 3.169E+01
  31    50.00    0.798  271.8  5.750E-07 5.756E+07 7.914E-04 2.276E-07 2.452E-04 1.654E+01
  32    70.00    0.052  220.7  3.734E-09 1.809E+05 6.377E-05 1.834E-08 1.912E-06 1.332E+00
  33   100.00    0.000  196.2  1.775E-13 1.192E-01 4.398E-07 1.265E-10 1.758E-08 7.032E-03
1
  ATMOSPHERIC PROFILES

   I     Z       P       T      CNTMFRN     HNO3    AEROSOL 1 AEROSOL 2 AEROSOL 3 AEROSOL 4 AER1*RH   CIRRUS         RH
        (KM)    (MB)    (K)   MOL/CM2 KM ATM CM/KM   (-)       (-)       (-)       (-)       (-)       (-)      (PERCNT)

   1     0.00 1013.000  289.3  2.125E+22 0.000E+00 0.000E+00 0.000E+00 0.000E+00 0.000E+00 0.000E+00 0.000E+00 4.569E+01
   2     1.00  898.800  282.8  1.379E+22 0.000E+00 0.000E+00 0.000E+00 0.000E+00 0.000E+00 0.000E+00 0.000E+00 4.880E+01
   3     2.00  795.000  276.3  8.661E+21 0.000E+00 0.000E+00 0.000E+00 0.000E+00 0.000E+00 0.000E+00 0.000E+00 5.172E+01
   4     3.00  701.200  269.8  4.880E+21 0.000E+00 0.000E+00 0.000E+00 0.000E+00 0.000E+00 0.000E+00 0.000E+00 5.046E+01
   5     4.00  616.600  263.3  2.700E+21 0.000E+00 0.000E+00 0.000E+00 0.000E+00 0.000E+00 0.000E+00 0.000E+00 4.975E+01
   6     5.00  540.500  256.8  1.419E+21 0.000E+00 0.000E+00 0.000E+00 0.000E+00 0.000E+00 0.000E+00 0.000E+00 4.803E+01
   7     6.00  472.200  250.3  7.587E+20 0.000E+00 0.000E+00 0.000E+00 0.000E+00 0.000E+00 0.000E+00 0.000E+00 4.881E+01
   8     7.00  411.100  243.8  3.766E+20 0.000E+00 0.000E+00 0.000E+00 0.000E+00 0.000E+00 0.000E+00 0.000E+00 4.772E+01
   9     8.00  356.500  237.3  1.926E+20 0.000E+00 0.000E+00 0.000E+00 0.000E+00 0.000E+00 0.000E+00 0.000E+00 5.003E+01
  10     9.00  308.000  230.8  6.599E+19 0.000E+00 0.000E+00 0.000E+00 0.000E+00 0.000E+00 0.000E+00 0.000E+00 3.665E+01
  11    10.00  265.000  224.4  2.298E+19 0.000E+00 0.000E+00 0.000E+00 0.000E+00 0.000E+00 0.000E+00 0.000E+00 2.831E+01
  12    11.00  227.000  217.9  9.295E+18 0.000E+00 0.000E+00 0.000E+00 0.000E+00 0.000E+00 0.000E+00 0.000E+00 2.702E+01
  13    12.00  194.000  217.8  3.585E+18 0.000E+00 0.000E+00 0.000E+00 0.000E+00 0.000E+00 0.000E+00 0.000E+00 1.233E+01
  14    13.00  165.800  217.8  1.491E+18 0.000E+00 0.000E+00 0.000E+00 0.000E+00 0.000E+00 0.000E+00 0.000E+00 5.999E+00
  15    14.00  141.700  217.8  5.948E+17 0.000E+00 0.000E+00 0.000E+00 0.000E+00 0.000E+00 0.000E+00 0.000E+00 2.801E+00
  16    15.00  121.100  217.8  3.665E+17 0.000E+00 0.000E+00 0.000E+00 0.000E+00 0.000E+00 0.000E+00 0.000E+00 2.019E+00
  17    16.00  103.500  217.8  2.115E+17 0.000E+00 0.000E+00 0.000E+00 0.000E+00 0.000E+00 0.000E+00 0.000E+00 1.363E+00
  18    17.00   88.500  217.8  1.507E+17 0.000E+00 0.000E+00 0.000E+00 0.000E+00 0.000E+00 0.000E+00 0.000E+00 1.136E+00
  19    18.00   75.650  217.8  1.094E+17 0.000E+00 0.000E+00 0.000E+00 0.000E+00 0.000E+00 0.000E+00 0.000E+00 9.650E-01
  20    19.00   64.670  217.8  8.047E+16 0.000E+00 0.000E+00 0.000E+00 0.000E+00 0.000E+00 0.000E+00 0.000E+00 8.303E-01
  21    20.00   55.290  217.8  5.958E+16 0.000E+00 0.000E+00 0.000E+00 0.000E+00 0.000E+00 0.000E+00 0.000E+00 7.191E-01
  22    21.00   47.290  218.7  4.402E+16 0.000E+00 0.000E+00 0.000E+00 0.000E+00 0.000E+00 0.000E+00 0.000E+00 5.618E-01
  23    22.00   40.470  219.7  3.264E+16 0.000E+00 0.000E+00 0.000E+00 0.000E+00 0.000E+00 0.000E+00 0.000E+00 4.357E-01
  24    23.00   34.670  220.7  2.450E+16 0.000E+00 0.000E+00 0.000E+00 0.000E+00 0.000E+00 0.000E+00 0.000E+00 3.423E-01
  25    24.00   29.720  221.7  1.825E+16 0.000E+00 0.000E+00 0.000E+00 0.000E+00 0.000E+00 0.000E+00 0.000E+00 2.669E-01
  26    25.00   25.490  222.7  1.368E+16 0.000E+00 0.000E+00 0.000E+00 0.000E+00 0.000E+00 0.000E+00 0.000E+00 2.096E-01
  27    30.00   11.970  227.6  3.069E+15 0.000E+00 0.000E+00 0.000E+00 0.000E+00 0.000E+00 0.000E+00 0.000E+00 6.026E-02
  28    35.00    5.746  237.6  6.671E+14 0.000E+00 0.000E+00 0.000E+00 0.000E+00 0.000E+00 0.000E+00 0.000E+00 1.045E-02
  29    40.00    2.871  251.5  1.509E+14 0.000E+00 0.000E+00 0.000E+00 0.000E+00 0.000E+00 0.000E+00 0.000E+00 1.449E-03
  30    45.00    1.491  265.3  3.769E+13 0.000E+00 0.000E+00 0.000E+00 0.000E+00 0.000E+00 0.000E+00 0.000E+00 2.488E-04
  31    50.00    0.798  271.8  1.024E+13 0.000E+00 0.000E+00 0.000E+00 0.000E+00 0.000E+00 0.000E+00 0.000E+00 8.120E-05
  32    70.00    0.052  220.7  4.628E+10 0.000E+00 0.000E+00 0.000E+00 0.000E+00 0.000E+00 0.000E+00 0.000E+00 4.295E-04
  33   100.00    0.000  196.2  2.590E+05 0.000E+00 0.000E+00 0.000E+00 0.000E+00 0.000E+00 0.000E+00 0.000E+00 8.441E-06
1
  ATMOSPHERIC PROFILES

   I      Z       P       T      H2O      O3       CO2      CO       CH4      N2O      O2       NH3      NO       NO2      SO2
         (KM)    (MB)    (K)  (                                    MBAR                                                       )
   1     0.00 1013.000  289.3  6.26E+00 2.66E-02 8.00E+02 0.00E+00 1.70E+00 0.00E+00 2.09E+05 0.00E+00 0.00E+00 0.00E+00 0.00E+00
   2     1.00  898.800  282.8  4.47E+00 2.93E-02 8.00E+02 0.00E+00 1.70E+00 0.00E+00 2.09E+05 0.00E+00 0.00E+00 0.00E+00 0.00E+00
   3     2.00  795.000  276.3  3.10E+00 3.24E-02 8.00E+02 0.00E+00 1.70E+00 0.00E+00 2.09E+05 0.00E+00 0.00E+00 0.00E+00 0.00E+00
   4     3.00  701.200  269.8  1.93E+00 3.32E-02 8.00E+02 0.00E+00 1.70E+00 0.00E+00 2.09E+05 0.00E+00 0.00E+00 0.00E+00 0.00E+00
   5     4.00  616.600  263.3  1.18E+00 3.39E-02 8.00E+02 0.00E+00 1.70E+00 0.00E+00 2.09E+05 0.00E+00 0.00E+00 0.00E+00 0.00E+00
   6     5.00  540.500  256.8  6.91E-01 3.77E-02 8.00E+02 0.00E+00 1.70E+00 0.00E+00 2.09E+05 0.00E+00 0.00E+00 0.00E+00 0.00E+00
   7     6.00  472.200  250.3  4.12E-01 4.11E-02 8.00E+02 0.00E+00 1.70E+00 0.00E+00 2.09E+05 0.00E+00 0.00E+00 0.00E+00 0.00E+00
   8     7.00  411.100  243.8  2.29E-01 5.01E-02 8.00E+02 0.00E+00 1.70E+00 0.00E+00 2.09E+05 0.00E+00 0.00E+00 0.00E+00 0.00E+00
   9     8.00  356.500  237.3  1.31E-01 5.97E-02 8.00E+02 0.00E+00 1.70E+00 0.00E+00 2.09E+05 0.00E+00 0.00E+00 0.00E+00 0.00E+00
  10     9.00  308.000  230.8  5.06E-02 9.17E-02 8.00E+02 0.00E+00 1.69E+00 0.00E+00 2.09E+05 0.00E+00 0.00E+00 0.00E+00 0.00E+00
  11    10.00  265.000  224.4  1.99E-02 1.31E-01 8.00E+02 0.00E+00 1.68E+00 0.00E+00 2.09E+05 0.00E+00 0.00E+00 0.00E+00 0.00E+00
  12    11.00  227.000  217.9  9.13E-03 2.15E-01 8.00E+02 0.00E+00 1.67E+00 0.00E+00 2.09E+05 0.00E+00 0.00E+00 0.00E+00 0.00E+00
  13    12.00  194.000  217.8  4.12E-03 3.10E-01 8.00E+02 0.00E+00 1.66E+00 0.00E+00 2.09E+05 0.00E+00 0.00E+00 0.00E+00 0.00E+00
  14    13.00  165.800  217.8  2.00E-03 3.85E-01 8.00E+02 0.00E+00 1.64E+00 0.00E+00 2.09E+05 0.00E+00 0.00E+00 0.00E+00 0.00E+00
  15    14.00  141.700  217.8  9.36E-04 5.03E-01 8.00E+02 0.00E+00 1.63E+00 0.00E+00 2.09E+05 0.00E+00 0.00E+00 0.00E+00 0.00E+00
  16    15.00  121.100  217.8  6.75E-04 6.50E-01 8.00E+02 0.00E+00 1.61E+00 0.00E+00 2.09E+05 0.00E+00 0.00E+00 0.00E+00 0.00E+00
  17    16.00  103.500  217.8  4.56E-04 8.70E-01 8.00E+02 0.00E+00 1.58E+00 0.00E+00 2.09E+05 0.00E+00 0.00E+00 0.00E+00 0.00E+00
  18    17.00   88.500  217.8  3.80E-04 1.19E+00 8.00E+02 0.00E+00 1.55E+00 0.00E+00 2.09E+05 0.00E+00 0.00E+00 0.00E+00 0.00E+00
  19    18.00   75.650  217.8  3.22E-04 1.59E+00 8.00E+02 0.00E+00 1.52E+00 0.00E+00 2.09E+05 0.00E+00 0.00E+00 0.00E+00 0.00E+00
  20    19.00   64.670  217.8  2.77E-04 2.03E+00 8.00E+02 0.00E+00 1.48E+00 0.00E+00 2.09E+05 0.00E+00 0.00E+00 0.00E+00 0.00E+00
  21    20.00   55.290  217.8  2.40E-04 2.58E+00 8.00E+02 0.00E+00 1.42E+00 0.00E+00 2.09E+05 0.00E+00 0.00E+00 0.00E+00 0.00E+00
  22    21.00   47.290  218.7  2.08E-04 3.03E+00 8.00E+02 0.00E+00 1.36E+00 0.00E+00 2.09E+05 0.00E+00 0.00E+00 0.00E+00 0.00E+00
  23    22.00   40.470  219.7  1.81E-04 3.65E+00 8.00E+02 0.00E+00 1.27E+00 0.00E+00 2.09E+05 0.00E+00 0.00E+00 0.00E+00 0.00E+00
  24    23.00   34.670  220.7  1.60E-04 4.17E+00 8.00E+02 0.00E+00 1.19E+00 0.00E+00 2.09E+05 0.00E+00 0.00E+00 0.00E+00 0.00E+00
  25    24.00   29.720  221.7  1.39E-04 4.63E+00 8.00E+02 0.00E+00 1.12E+00 0.00E+00 2.09E+05 0.00E+00 0.00E+00 0.00E+00 0.00E+00
  26    25.00   25.490  222.7  1.22E-04 5.12E+00 8.00E+02 0.00E+00 1.05E+00 0.00E+00 2.09E+05 0.00E+00 0.00E+00 0.00E+00 0.00E+00
  27    30.00   11.970  227.6  5.97E-05 6.55E+00 8.00E+02 0.00E+00 9.14E-01 0.00E+00 2.09E+05 0.00E+00 0.00E+00 0.00E+00 0.00E+00
  28    35.00    5.746  237.6  2.82E-05 7.84E+00 8.00E+02 0.00E+00 7.46E-01 0.00E+00 2.09E+05 0.00E+00 0.00E+00 0.00E+00 0.00E+00
  29    40.00    2.871  251.5  1.35E-05 7.30E+00 8.00E+02 0.00E+00 5.64E-01 0.00E+00 2.09E+05 0.00E+00 0.00E+00 0.00E+00 0.00E+00
  30    45.00    1.491  265.3  6.87E-06 5.25E+00 8.00E+02 0.00E+00 3.63E-01 0.00E+00 2.09E+05 0.00E+00 0.00E+00 0.00E+00 0.00E+00
  31    50.00    0.798  271.8  3.57E-06 3.10E+00 8.00E+02 0.00E+00 2.10E-01 0.00E+00 2.09E+05 0.00E+00 0.00E+00 0.00E+00 0.00E+00
  32    70.00    0.052  220.7  2.00E-07 3.00E-01 8.00E+02 0.00E+00 1.50E-01 0.00E+00 2.09E+05 0.00E+00 0.00E+00 0.00E+00 0.00E+00
  33   100.00    0.000  196.2  1.63E-10 4.00E-01 4.73E+02 0.00E+00 1.20E-01 0.00E+00 1.60E+05 0.00E+00 0.00E+00 0.00E+00 0.00E+00
1
  ATMOSPHERIC PROFILES

   I      Z       P       T     CFC-11   CFC-12   CFC-13   CFC-14   CFC-22   CFC-113  CFC-114  CFC-115  CLONO2    HNO4    CHCL2F 
                                 CCL4     N2O5  
         (KM)    (MB)    (K)  (                                 ATM CM/KM                                                     )
   1     0.00 1013.000  289.3  1.32E-05 2.26E-05 9.43E-14 9.43E-14 5.66E-06 1.79E-06 1.13E-06 9.43E-14 5.42E-07 4.09E-08 9.43E-14
                               1.23E-05 2.28E-11
   2     1.00  898.800  282.8  1.20E-05 2.06E-05 8.56E-14 8.56E-14 5.13E-06 1.63E-06 1.03E-06 8.56E-14 4.39E-07 1.83E-07 8.56E-14
                               1.11E-05 8.17E-11
   3     2.00  795.000  276.3  1.09E-05 1.86E-05 7.75E-14 7.75E-14 4.64E-06 1.47E-06 9.30E-07 7.75E-14 3.49E-07 2.97E-07 7.75E-14
                               1.01E-05 1.29E-10
   4     3.00  701.200  269.8  9.80E-06 1.68E-05 7.00E-14 7.00E-14 4.19E-06 1.33E-06 8.40E-07 7.00E-14 2.72E-07 3.88E-07 7.00E-14
                               9.10E-06 1.67E-10
   5     4.00  616.600  263.3  8.83E-06 1.51E-05 6.31E-14 6.31E-14 3.77E-06 1.20E-06 7.57E-07 6.31E-14 2.06E-07 4.57E-07 6.31E-14
                               8.20E-06 1.95E-10
   6     5.00  540.500  256.8  7.94E-06 1.36E-05 5.67E-14 5.67E-14 3.39E-06 1.08E-06 6.81E-07 5.67E-14 1.56E-07 1.03E-06 5.67E-14
                               7.36E-06 2.05E-10
   7     6.00  472.200  250.3  7.12E-06 1.22E-05 5.08E-14 5.08E-14 3.04E-06 9.66E-07 6.10E-07 5.08E-14 1.14E-07 1.48E-06 5.08E-14
                               6.58E-06 2.10E-10
   8     7.00  411.100  243.8  6.36E-06 1.09E-05 4.54E-14 4.54E-14 2.71E-06 8.63E-07 5.45E-07 4.54E-14 7.93E-08 1.82E-06 4.54E-14
                               5.87E-06 2.11E-10
   9     8.00  356.500  237.3  5.67E-06 9.71E-06 4.05E-14 4.05E-14 2.42E-06 7.69E-07 4.86E-07 4.05E-14 5.02E-08 2.06E-06 4.05E-14
                               5.22E-06 2.09E-10
  10     9.00  308.000  230.8  5.03E-06 8.62E-06 3.60E-14 3.60E-14 2.14E-06 6.82E-07 4.31E-07 3.60E-14 4.34E-08 1.77E-06 3.60E-14
                               4.64E-06 2.07E-10
  11    10.00  265.000  224.4  4.44E-06 7.62E-06 3.18E-14 3.18E-14 1.90E-06 6.03E-07 3.82E-07 3.18E-14 3.74E-08 1.51E-06 3.18E-14
                               4.10E-06 2.03E-10
  12    11.00  227.000  217.9  3.91E-06 6.72E-06 2.81E-14 2.81E-14 1.67E-06 5.31E-07 3.37E-07 2.81E-14 3.21E-08 1.28E-06 2.81E-14
                               3.62E-06 1.96E-10
  13    12.00  194.000  217.8  3.34E-06 5.74E-06 2.40E-14 2.40E-14 1.43E-06 4.54E-07 2.88E-07 2.40E-14 2.66E-08 1.05E-06 2.40E-14
                               3.10E-06 1.82E-10
  14    13.00  165.800  217.8  2.77E-06 4.83E-06 2.05E-14 2.05E-14 1.21E-06 3.80E-07 2.44E-07 2.05E-14 1.64E-07 1.16E-06 2.05E-14
                               2.56E-06 9.04E-09
  15    14.00  141.700  217.8  2.30E-06 4.07E-06 1.75E-14 1.75E-14 1.02E-06 3.19E-07 2.06E-07 1.75E-14 2.61E-07 1.22E-06 1.75E-14
                               2.12E-06 1.53E-08
  16    15.00  121.100  217.8  1.90E-06 3.42E-06 1.50E-14 1.50E-14 8.66E-07 2.67E-07 1.74E-07 1.50E-14 3.27E-07 1.23E-06 1.50E-14
                               1.75E-06 1.96E-08
  17    16.00  103.500  217.8  1.57E-06 2.88E-06 1.28E-14 1.28E-14 7.32E-07 2.24E-07 1.47E-07 1.28E-14 3.67E-07 1.22E-06 1.28E-14
                               1.45E-06 2.23E-08
  18    17.00   88.500  217.8  1.23E-06 2.35E-06 1.09E-14 1.09E-14 6.09E-07 1.81E-07 1.22E-07 1.09E-14 1.11E-06 1.56E-06 1.09E-14
                               1.11E-06 9.61E-08
  19    18.00   75.650  217.8  9.51E-07 1.91E-06 9.36E-15 9.36E-15 5.06E-07 1.46E-07 1.02E-07 9.36E-15 1.63E-06 1.78E-06 9.36E-15
                               8.48E-07 1.48E-07
  20    19.00   64.670  217.8  7.27E-07 1.55E-06 8.00E-15 8.00E-15 4.20E-07 1.17E-07 8.42E-08 8.00E-15 1.98E-06 1.90E-06 8.00E-15
                               6.35E-07 1.83E-07
  21    20.00   55.290  217.8  5.49E-07 1.26E-06 6.84E-15 6.84E-15 3.48E-07 9.30E-08 6.98E-08 6.84E-15 2.19E-06 1.95E-06 6.84E-15
                               4.66E-07 2.05E-07
  22    21.00   47.290  218.7  4.00E-07 9.96E-07 5.83E-15 5.83E-15 2.85E-07 7.21E-08 5.68E-08 5.83E-15 2.68E-06 2.05E-06 5.83E-15
                               3.33E-07 2.42E-07
  23    22.00   40.470  219.7  2.83E-07 7.84E-07 4.96E-15 4.96E-15 2.33E-07 5.54E-08 4.62E-08 4.96E-15 2.98E-06 2.08E-06 4.96E-15
                               2.29E-07 2.63E-07
  24    23.00   34.670  220.7  1.93E-07 6.14E-07 4.23E-15 4.23E-15 1.90E-07 4.20E-08 3.75E-08 4.23E-15 3.13E-06 2.05E-06 4.23E-15
                               1.48E-07 2.73E-07
  25    24.00   29.720  221.7  1.23E-07 4.77E-07 3.61E-15 3.61E-15 1.55E-07 3.15E-08 3.04E-08 3.61E-15 3.18E-06 1.99E-06 3.61E-15
                               8.67E-08 2.75E-07
  26    25.00   25.490  222.7  8.41E-08 3.66E-07 3.08E-15 3.08E-15 1.26E-07 2.34E-08 2.45E-08 3.08E-15 3.00E-06 1.79E-06 3.08E-15
                               5.81E-08 2.38E-07
  27    30.00   11.970  227.6  5.53E-09 8.34E-08 1.42E-15 1.42E-15 4.29E-08 4.13E-09 7.99E-09 1.42E-15 1.62E-06 7.23E-07 1.42E-15
                               2.49E-09 7.82E-08
  28    35.00    5.746  237.6  1.29E-10 1.39E-08 6.52E-16 6.52E-16 1.35E-08 4.67E-10 2.38E-09 6.52E-16 3.41E-07 9.57E-08 6.52E-16
                               2.58E-11 7.05E-09
  29    40.00    2.871  251.5  5.69E-13 1.87E-09 3.08E-16 3.08E-16 4.28E-09 3.78E-11 7.14E-10 3.08E-16 1.31E-08 3.06E-09 3.08E-16
                               1.22E-14 6.55E-11
  30    45.00    1.491  265.3  1.39E-14 3.23E-10 1.51E-16 1.51E-16 1.57E-09 4.87E-12 2.45E-10 1.51E-16 2.54E-10 1.32E-10 1.51E-16
                               8.44E-17 5.96E-13
  31    50.00    0.798  271.8  4.72E-16 6.74E-11 7.91E-17 7.91E-17 6.94E-10 7.83E-13 9.89E-11 7.91E-17 3.69E-12 6.03E-12 7.91E-17
                               8.64E-19 4.97E-15
  32    70.00    0.052  220.7  3.24E-21 2.49E-13 6.37E-18 6.37E-18 4.58E-11 1.12E-15 3.73E-12 6.37E-18 4.61E-19 2.05E-16 6.37E-18
                               6.29E-26 5.23E-23
  33   100.00    0.000  196.2  1.37E-30 1.09E-18 4.39E-20 4.39E-20 7.87E-14 5.76E-22 9.36E-16 4.39E-20 3.55E-35 1.46E-31 4.39E-20
                               2.24E-38 0.00E+00


 CASE 3A: GIVEN H1,H2=SPACE,ANGLE



 TANGENT PATH WITH H1 =     70.000 AND ANGLE =    180.000 INTERSECTS THE EARTH

          H2 HAS BEEN RESET TO 0.0 AND LEN TO 0



 SLANT PATH PARAMETERS IN STANDARD FORM

          H1      =     70.000 KM
          H2      =      0.000 KM
          ANGLE   =    180.000 DEG
          PHI     =      0.000 DEG
          HMIN    =      0.000 KM
          LEN     =          0
1CALCULATION OF THE REFRACTED PATH THROUGH THE ATMOSPHERE


  I       ALTITUDE        THETA  DRANGE    RANGE    DBETA     BETA     PHI     DBEND  BENDING    PBAR    TBAR   RHOBAR
      FROM       TO
      (KM)      (KM)      (DEG)    (KM)     (KM)    (DEG)    (DEG)    (DEG)    (DEG)    (DEG)    (MB)    (K)  (GM CM-3)

          H2 TO H1

  1    0.000    1.000    0.000    1.000    1.000    0.000    0.000  180.000    0.000    0.000  955.684  286.05 1.16E-03
  2    1.000    2.000    0.000    1.000    2.000    0.000    0.000  180.000    0.000    0.000  846.699  279.55 1.05E-03
  3    2.000    3.000    0.000    1.000    3.000    0.000    0.000  180.000    0.000    0.000  747.914  273.05 9.53E-04
  4    3.000    4.000    0.000    1.000    4.000    0.000    0.000  180.000    0.000    0.000  658.728  266.55 8.60E-04
  5    4.000    5.000    0.000    1.000    5.000    0.000    0.000  180.000    0.000    0.000  578.392  260.05 7.74E-04
  6    5.000    6.000    0.000    1.000    6.000    0.000    0.000  180.000    0.000    0.000  506.204  253.56 6.95E-04
  7    6.000    7.000    0.000    1.000    7.000    0.000    0.000  180.000    0.000    0.000  441.516  247.06 6.22E-04
  8    7.000    8.000    0.000    1.000    8.000    0.000    0.000  180.000    0.000    0.000  383.677  240.56 5.55E-04
  9    8.000    9.000    0.000    1.000    9.000    0.000    0.000  180.000    0.000    0.000  332.138  234.06 4.94E-04
 10    9.000   10.000    0.000    1.000   10.000    0.000    0.000  180.000    0.000    0.000  286.399  227.61 4.38E-04
 11   10.000   11.000    0.000    1.000   11.000    0.000    0.000  180.000    0.000    0.000  245.907  221.16 3.87E-04
 12   11.000   12.000    0.000    1.000   12.000    0.000    0.000  180.000    0.000    0.000  210.499  217.81 3.36E-04
 13   12.000   13.000    0.000    1.000   13.000    0.000    0.000  180.000    0.000    0.000  179.900  217.76 2.87E-04
 14   13.000   14.000    0.000    1.000   14.000    0.000    0.000  180.000    0.000    0.000  153.750  217.76 2.45E-04
 15   14.000   15.000    0.000    1.000   15.000    0.000    0.000  180.000    0.000    0.000  131.400  217.76 2.10E-04
 16   15.000   16.000    0.000    1.000   16.000    0.000    0.000  180.000    0.000    0.000  112.300  217.76 1.79E-04
 17   16.000   17.000    0.000    1.000   17.000    0.000    0.000  180.000    0.000    0.000   96.000  217.76 1.53E-04
 18   17.000   18.000    0.000    1.000   18.000    0.000    0.000  180.000    0.000    0.000   82.075  217.76 1.31E-04
 19   18.000   19.000    0.000    1.000   19.000    0.000    0.000  180.000    0.000    0.000   70.160  217.76 1.12E-04
 20   19.000   20.000    0.000    1.000   20.000    0.000    0.000  180.000    0.000    0.000   59.980  217.76 9.58E-05
 21   20.000   21.000    0.000    1.000   21.000    0.000    0.000  180.000    0.000    0.000   51.293  218.20 8.17E-05
 22   21.000   22.000    0.000    1.000   22.000    0.000    0.000  180.000    0.000    0.000   43.883  219.15 6.96E-05
 23   22.000   23.000    0.000    1.000   23.000    0.000    0.000  180.000    0.000    0.000   37.572  220.15 5.93E-05
 24   23.000   24.000    0.000    1.000   24.000    0.000    0.000  180.000    0.000    0.000   32.197  221.15 5.06E-05
 25   24.000   25.000    0.000    1.000   25.000    0.000    0.000  180.000    0.000    0.000   27.607  222.15 4.32E-05
 26   25.000   30.000    0.000    5.000   30.000    0.000    0.000  180.000    0.000    0.000   18.754  224.79 2.77E-05
 27   30.000   35.000    0.000    5.000   35.000    0.000    0.000  180.000    0.000    0.000    8.880  231.88 1.27E-05
 28   35.000   40.000    0.000    5.000   40.000    0.000    0.000  180.000    0.000    0.000    4.322  243.58 5.93E-06
 29   40.000   45.000    0.000    5.000   45.000    0.000    0.000  180.000    0.000    0.000    2.187  257.49 2.85E-06
 30   45.000   50.000    0.000    5.000   50.000    0.000    0.000  180.000    0.000    0.000    1.146  268.15 1.44E-06
 31   50.000   70.000    0.000   20.000   70.000    0.000    0.000  180.000    0.000    0.000    0.414  255.14 3.73E-07




1CUMULATIVE ABSORBER AMOUNTS FOR THE PATH FROM H1 TO Z

  J     Z        TBAR     HNO3        O3 UV      CNTMSLF1   CNTMSLF2    CNTMFRN      O2
       (KM)       (K)   (ATM CM)    (ATM CM)    (MOL CM-2)  (MOL CM-2)  (MOL CM-2)(MOL CM-2)

  1   50.000   255.14   0.000E+00   1.002E-03   1.991E+08   2.260E+08   3.777E+13   1.207E+02
  2   45.000   268.15   0.000E+00   3.339E-03   7.924E+08   6.850E+08   1.431E+14   2.372E+02
  3   40.000   257.49   0.000E+00   1.032E-02   3.051E+09   3.101E+09   5.512E+14   4.680E+02
  4   35.000   243.58   0.000E+00   2.773E-02   1.246E+10   1.680E+10   2.288E+15   9.488E+02
  5   30.000   231.88   0.000E+00   6.268E-02   5.414E+10   9.104E+10   1.016E+16   1.988E+03
  6   25.000   224.79   0.000E+00   1.239E-01   2.333E+11   4.454E+11   4.565E+16   4.272E+03
  7   24.000   222.15   0.000E+00   1.402E-01   3.103E+11   6.035E+11   6.150E+16   4.989E+03
  8   23.000   221.15   0.000E+00   1.573E-01   4.109E+11   8.126E+11   8.272E+16   5.834E+03
  9   22.000   220.15   0.000E+00   1.752E-01   5.418E+11   1.088E+12   1.111E+17   6.830E+03
 10   21.000   219.15   0.000E+00   1.931E-01   7.128E+11   1.453E+12   1.491E+17   8.005E+03
 11   20.000   218.20   0.000E+00   2.107E-01   9.393E+11   1.943E+12   2.005E+17   9.396E+03
 12   19.000   217.76   0.000E+00   2.277E-01   1.241E+12   2.598E+12   2.700E+17   1.104E+04
 13   18.000   217.76   0.000E+00   2.432E-01   1.646E+12   3.478E+12   3.642E+17   1.298E+04
 14   17.000   217.76   0.000E+00   2.571E-01   2.200E+12   4.683E+12   4.932E+17   1.528E+04
 15   16.000   217.76   0.000E+00   2.692E-01   2.984E+12   6.387E+12   6.726E+17   1.800E+04
 16   15.000   217.76   0.000E+00   2.797E-01   4.406E+12   9.476E+12   9.545E+17   2.123E+04
 17   14.000   217.76   0.000E+00   2.889E-01   7.303E+12   1.577E+13   1.426E+18   2.508E+04
 18   13.000   217.76   0.000E+00   2.973E-01   1.660E+13   3.598E+13   2.401E+18   2.968E+04
 19   12.000   217.76   0.000E+00   3.049E-01   5.714E+13   1.241E+14   4.787E+18   3.518E+04
 20   11.000   217.81   0.000E+00   3.117E-01   2.453E+14   5.327E+14   1.078E+19   4.178E+04
 21   10.000   221.16   0.000E+00   3.168E-01   1.151E+15   2.416E+15   2.590E+19   4.959E+04
 22    9.000   227.61   0.000E+00   3.205E-01   6.387E+15   1.236E+16   6.667E+19   5.866E+04
 23    8.000   234.06   0.000E+00   3.234E-01   4.111E+16   7.211E+16   1.849E+20   6.917E+04
 24    7.000   240.56   0.000E+00   3.257E-01   1.836E+17   2.915E+17   4.593E+20   8.134E+04
 25    6.000   247.06   0.000E+00   3.279E-01   6.336E+17   9.033E+17   1.005E+21   9.541E+04
 26    5.000   253.56   0.000E+00   3.300E-01   1.976E+18   2.486E+18   2.059E+21   1.117E+05
 27    4.000   260.05   0.000E+00   3.322E-01   5.842E+18   6.346E+18   4.050E+21   1.304E+05
 28    3.000   266.55   0.000E+00   3.344E-01   1.654E+19   1.510E+19   7.734E+21   1.520E+05
 29    2.000   273.05   0.000E+00   3.368E-01   4.449E+19   3.292E+19   1.432E+22   1.768E+05
 30    1.000   279.55   0.000E+00   3.393E-01   1.083E+20   6.208E+19   2.535E+22   2.054E+05
 31    0.000   286.05   0.000E+00   3.418E-01   2.370E+20   9.764E+19   4.260E+22   2.383E+05



1 J     Z       N2 CONT    MOL SCAT       AER 1       AER 2       AER 3       AER 4       CIRRUS
       (KM)

  1   50.000   2.268E-06   5.778E-03   0.000E+00   0.000E+00   0.000E+00   0.000E+00   0.000E+00
  2   45.000   8.168E-06   1.135E-02   0.000E+00   0.000E+00   0.000E+00   0.000E+00   0.000E+00
  3   40.000   3.141E-05   2.238E-02   0.000E+00   0.000E+00   0.000E+00   0.000E+00   0.000E+00
  4   35.000   1.324E-04   4.530E-02   0.000E+00   0.000E+00   0.000E+00   0.000E+00   0.000E+00
  5   30.000   6.009E-04   9.460E-02   0.000E+00   0.000E+00   0.000E+00   0.000E+00   0.000E+00
  6   25.000   2.818E-03   2.019E-01   0.000E+00   0.000E+00   0.000E+00   0.000E+00   0.000E+00
  7   24.000   3.847E-03   2.353E-01   0.000E+00   0.000E+00   0.000E+00   0.000E+00   0.000E+00
  8   23.000   5.258E-03   2.745E-01   0.000E+00   0.000E+00   0.000E+00   0.000E+00   0.000E+00
  9   22.000   7.198E-03   3.204E-01   0.000E+00   0.000E+00   0.000E+00   0.000E+00   0.000E+00
 10   21.000   9.867E-03   3.742E-01   0.000E+00   0.000E+00   0.000E+00   0.000E+00   0.000E+00
 11   20.000   1.355E-02   4.375E-01   0.000E+00   0.000E+00   0.000E+00   0.000E+00   0.000E+00
 12   19.000   1.860E-02   5.116E-01   0.000E+00   0.000E+00   0.000E+00   0.000E+00   0.000E+00
 13   18.000   2.551E-02   5.983E-01   0.000E+00   0.000E+00   0.000E+00   0.000E+00   0.000E+00
 14   17.000   3.497E-02   6.997E-01   0.000E+00   0.000E+00   0.000E+00   0.000E+00   0.000E+00
 15   16.000   4.791E-02   8.183E-01   0.000E+00   0.000E+00   0.000E+00   0.000E+00   0.000E+00
 16   15.000   6.562E-02   9.570E-01   0.000E+00   0.000E+00   0.000E+00   0.000E+00   0.000E+00
 17   14.000   8.986E-02   1.119E+00   0.000E+00   0.000E+00   0.000E+00   0.000E+00   0.000E+00
 18   13.000   1.230E-01   1.309E+00   0.000E+00   0.000E+00   0.000E+00   0.000E+00   0.000E+00
 19   12.000   1.685E-01   1.532E+00   0.000E+00   0.000E+00   0.000E+00   0.000E+00   0.000E+00
 20   11.000   2.307E-01   1.792E+00   0.000E+00   0.000E+00   0.000E+00   0.000E+00   0.000E+00
 21   10.000   3.130E-01   2.091E+00   0.000E+00   0.000E+00   0.000E+00   0.000E+00   0.000E+00
 22    9.000   4.184E-01   2.429E+00   0.000E+00   0.000E+00   0.000E+00   0.000E+00   0.000E+00
 23    8.000   5.526E-01   2.811E+00   0.000E+00   0.000E+00   0.000E+00   0.000E+00   0.000E+00
 24    7.000   7.220E-01   3.241E+00   0.000E+00   0.000E+00   0.000E+00   0.000E+00   0.000E+00
 25    6.000   9.348E-01   3.722E+00   0.000E+00   0.000E+00   0.000E+00   0.000E+00   0.000E+00
 26    5.000   1.200E+00   4.260E+00   0.000E+00   0.000E+00   0.000E+00   0.000E+00   0.000E+00
 27    4.000   1.530E+00   4.858E+00   0.000E+00   0.000E+00   0.000E+00   0.000E+00   0.000E+00
 28    3.000   1.937E+00   5.524E+00   0.000E+00   0.000E+00   0.000E+00   0.000E+00   0.000E+00
 29    2.000   2.437E+00   6.261E+00   0.000E+00   0.000E+00   0.000E+00   0.000E+00   0.000E+00
 30    1.000   3.048E+00   7.077E+00   0.000E+00   0.000E+00   0.000E+00   0.000E+00   0.000E+00
 31    0.000   3.792E+00   7.977E+00   0.000E+00   0.000E+00   0.000E+00   0.000E+00   0.000E+00



1  J    Z       H2O       O3        CO2       CO        CH4       N2O       O2        NH3       NO        NO2       SO2
      (KM)    (                                                      ATM CM                                             )

   1   50.00  2.91E-03  1.00E-03  4.62E-01  0.00E+00  1.10E-04  0.00E+00  1.21E+02  0.00E+00  0.00E+00  0.00E+00  0.00E+00
   2   45.00  6.05E-03  3.34E-03  9.07E-01  0.00E+00  2.70E-04  0.00E+00  2.37E+02  0.00E+00  0.00E+00  0.00E+00  0.00E+00
   3   40.00  1.22E-02  1.03E-02  1.79E+00  0.00E+00  7.85E-04  0.00E+00  4.67E+02  0.00E+00  0.00E+00  0.00E+00  0.00E+00
   4   35.00  2.46E-02  2.77E-02  3.62E+00  0.00E+00  2.30E-03  0.00E+00  9.46E+02  0.00E+00  0.00E+00  0.00E+00  0.00E+00
   5   30.00  5.08E-02  6.27E-02  7.56E+00  0.00E+00  6.43E-03  0.00E+00  1.98E+03  0.00E+00  0.00E+00  0.00E+00  0.00E+00
   6   25.00  1.05E-01  1.24E-01  1.61E+01  0.00E+00  1.71E-02  0.00E+00  4.22E+03  0.00E+00  0.00E+00  0.00E+00  0.00E+00
   7   24.00  1.21E-01  1.40E-01  1.88E+01  0.00E+00  2.07E-02  0.00E+00  4.91E+03  0.00E+00  0.00E+00  0.00E+00  0.00E+00
   8   23.00  1.40E-01  1.57E-01  2.19E+01  0.00E+00  2.52E-02  0.00E+00  5.73E+03  0.00E+00  0.00E+00  0.00E+00  0.00E+00
   9   22.00  1.61E-01  1.75E-01  2.56E+01  0.00E+00  3.09E-02  0.00E+00  6.69E+03  0.00E+00  0.00E+00  0.00E+00  0.00E+00
  10   21.00  1.85E-01  1.93E-01  2.99E+01  0.00E+00  3.79E-02  0.00E+00  7.82E+03  0.00E+00  0.00E+00  0.00E+00  0.00E+00
  11   20.00  2.13E-01  2.11E-01  3.50E+01  0.00E+00  4.67E-02  0.00E+00  9.14E+03  0.00E+00  0.00E+00  0.00E+00  0.00E+00
  12   19.00  2.45E-01  2.28E-01  4.09E+01  0.00E+00  5.75E-02  0.00E+00  1.07E+04  0.00E+00  0.00E+00  0.00E+00  0.00E+00
  13   18.00  2.83E-01  2.43E-01  4.78E+01  0.00E+00  7.05E-02  0.00E+00  1.25E+04  0.00E+00  0.00E+00  0.00E+00  0.00E+00
  14   17.00  3.26E-01  2.57E-01  5.59E+01  0.00E+00  8.61E-02  0.00E+00  1.46E+04  0.00E+00  0.00E+00  0.00E+00  0.00E+00
  15   16.00  3.78E-01  2.69E-01  6.54E+01  0.00E+00  1.05E-01  0.00E+00  1.71E+04  0.00E+00  0.00E+00  0.00E+00  0.00E+00
  16   15.00  4.47E-01  2.80E-01  7.65E+01  0.00E+00  1.27E-01  0.00E+00  2.00E+04  0.00E+00  0.00E+00  0.00E+00  0.00E+00
  17   14.00  5.47E-01  2.89E-01  8.95E+01  0.00E+00  1.53E-01  0.00E+00  2.34E+04  0.00E+00  0.00E+00  0.00E+00  0.00E+00
  18   13.00  7.21E-01  2.97E-01  1.05E+02  0.00E+00  1.84E-01  0.00E+00  2.73E+04  0.00E+00  0.00E+00  0.00E+00  0.00E+00
  19   12.00  1.09E+00  3.05E-01  1.22E+02  0.00E+00  2.21E-01  0.00E+00  3.20E+04  0.00E+00  0.00E+00  0.00E+00  0.00E+00
  20   11.00  1.87E+00  3.12E-01  1.43E+02  0.00E+00  2.64E-01  0.00E+00  3.74E+04  0.00E+00  0.00E+00  0.00E+00  0.00E+00
  21   10.00  3.59E+00  3.17E-01  1.67E+02  0.00E+00  3.14E-01  0.00E+00  4.37E+04  0.00E+00  0.00E+00  0.00E+00  0.00E+00
  22    9.00  7.69E+00  3.21E-01  1.94E+02  0.00E+00  3.71E-01  0.00E+00  5.07E+04  0.00E+00  0.00E+00  0.00E+00  0.00E+00
  23    8.00  1.82E+01  3.23E-01  2.25E+02  0.00E+00  4.36E-01  0.00E+00  5.87E+04  0.00E+00  0.00E+00  0.00E+00  0.00E+00
  24    7.00  4.01E+01  3.26E-01  2.59E+02  0.00E+00  5.09E-01  0.00E+00  6.77E+04  0.00E+00  0.00E+00  0.00E+00  0.00E+00
  25    6.00  7.88E+01  3.28E-01  2.98E+02  0.00E+00  5.91E-01  0.00E+00  7.77E+04  0.00E+00  0.00E+00  0.00E+00  0.00E+00
  26    5.00  1.46E+02  3.30E-01  3.41E+02  0.00E+00  6.82E-01  0.00E+00  8.90E+04  0.00E+00  0.00E+00  0.00E+00  0.00E+00
  27    4.00  2.60E+02  3.32E-01  3.88E+02  0.00E+00  7.84E-01  0.00E+00  1.01E+05  0.00E+00  0.00E+00  0.00E+00  0.00E+00
  28    3.00  4.50E+02  3.34E-01  4.42E+02  0.00E+00  8.97E-01  0.00E+00  1.15E+05  0.00E+00  0.00E+00  0.00E+00  0.00E+00
  29    2.00  7.57E+02  3.37E-01  5.01E+02  0.00E+00  1.02E+00  0.00E+00  1.31E+05  0.00E+00  0.00E+00  0.00E+00  0.00E+00
  30    1.00  1.22E+03  3.39E-01  5.66E+02  0.00E+00  1.16E+00  0.00E+00  1.48E+05  0.00E+00  0.00E+00  0.00E+00  0.00E+00
  31    0.00  1.88E+03  3.42E-01  6.38E+02  0.00E+00  1.31E+00  0.00E+00  1.67E+05  0.00E+00  0.00E+00  0.00E+00  0.00E+00



1  J    Z      CFC-11    CFC-12    CFC-13    CFC-14    CFC-22    CFC-113   CFC-114   CFC-115   CLONO2     HNO4     CHCL2F 
                CCL4      N2O5  
      (KM)    (                                                   ATM CM                                                )

   1   50.00  7.94E-16  2.40E-10  5.77E-16  5.77E-16  4.77E-09  2.39E-12  5.81E-10  5.77E-16  4.64E-12  1.17E-11  5.77E-16
              1.05E-18  5.41E-15
   2   45.00  2.06E-14  1.06E-09  1.13E-15  1.13E-15  1.01E-08  1.36E-11  1.39E-09  1.13E-15  3.01E-10  2.16E-10  1.13E-15
              9.22E-17  6.23E-13
   3   40.00  7.68E-13  5.46E-09  2.24E-15  2.24E-15  2.36E-08  9.40E-11  3.58E-09  2.24E-15  1.66E-08  4.88E-09  2.24E-15
              1.23E-14  6.97E-11
   4   35.00  1.19E-10  3.55E-08  4.53E-15  4.53E-15  6.37E-08  9.48E-10  1.05E-08  4.53E-15  5.20E-07  1.39E-07  4.53E-15
              1.68E-11  7.53E-09
   5   30.00  7.31E-09  2.29E-07  9.45E-15  9.45E-15  1.91E-07  9.35E-09  3.36E-08  9.45E-15  4.62E-06  1.69E-06  9.45E-15
              2.71E-09  1.55E-07
   6   25.00  1.52E-07  1.19E-06  2.02E-14  2.02E-14  5.76E-07  6.50E-08  1.07E-07  2.02E-14  1.58E-05  7.58E-06  2.02E-14
              9.10E-08  8.73E-07
   7   24.00  2.54E-07  1.60E-06  2.35E-14  2.35E-14  7.16E-07  9.22E-08  1.35E-07  2.35E-14  1.89E-05  9.47E-06  2.35E-14
              1.62E-07  1.13E-06
   8   23.00  4.09E-07  2.15E-06  2.74E-14  2.74E-14  8.89E-07  1.29E-07  1.69E-07  2.74E-14  2.20E-05  1.15E-05  2.74E-14
              2.77E-07  1.40E-06
   9   22.00  6.44E-07  2.84E-06  3.20E-14  3.20E-14  1.10E-06  1.77E-07  2.10E-07  3.20E-14  2.51E-05  1.36E-05  3.20E-14
              4.63E-07  1.67E-06
  10   21.00  9.83E-07  3.73E-06  3.74E-14  3.74E-14  1.36E-06  2.41E-07  2.62E-07  3.74E-14  2.79E-05  1.56E-05  3.74E-14
              7.41E-07  1.92E-06
  11   20.00  1.45E-06  4.85E-06  4.37E-14  4.37E-14  1.67E-06  3.23E-07  3.25E-07  4.37E-14  3.04E-05  1.76E-05  4.37E-14
              1.14E-06  2.15E-06
  12   19.00  2.09E-06  6.25E-06  5.11E-14  5.11E-14  2.06E-06  4.27E-07  4.01E-07  5.11E-14  3.24E-05  1.95E-05  5.11E-14
              1.68E-06  2.34E-06
  13   18.00  2.92E-06  7.98E-06  5.98E-14  5.98E-14  2.52E-06  5.58E-07  4.94E-07  5.98E-14  3.43E-05  2.14E-05  5.98E-14
              2.42E-06  2.51E-06
  14   17.00  4.01E-06  1.01E-05  6.99E-14  6.99E-14  3.07E-06  7.20E-07  6.06E-07  6.99E-14  3.56E-05  2.31E-05  6.99E-14
              3.39E-06  2.63E-06
  15   16.00  5.40E-06  1.27E-05  8.18E-14  8.18E-14  3.74E-06  9.22E-07  7.40E-07  8.18E-14  3.64E-05  2.44E-05  8.18E-14
              4.67E-06  2.69E-06
  16   15.00  7.13E-06  1.59E-05  9.56E-14  9.56E-14  4.54E-06  1.17E-06  9.01E-07  9.56E-14  3.67E-05  2.57E-05  9.56E-14
              6.26E-06  2.71E-06
  17   14.00  9.23E-06  1.96E-05  1.12E-13  1.12E-13  5.48E-06  1.46E-06  1.09E-06  1.12E-13  3.70E-05  2.69E-05  1.12E-13
              8.19E-06  2.72E-06
  18   13.00  1.18E-05  2.40E-05  1.31E-13  1.31E-13  6.60E-06  1.81E-06  1.31E-06  1.31E-13  3.72E-05  2.81E-05  1.31E-13
              1.05E-05  2.74E-06
  19   12.00  1.48E-05  2.93E-05  1.53E-13  1.53E-13  7.91E-06  2.22E-06  1.58E-06  1.53E-13  3.73E-05  2.92E-05  1.53E-13
              1.34E-05  2.74E-06
  20   11.00  1.84E-05  3.55E-05  1.79E-13  1.79E-13  9.46E-06  2.72E-06  1.89E-06  1.79E-13  3.73E-05  3.03E-05  1.79E-13
              1.67E-05  2.74E-06
  21   10.00  2.26E-05  4.27E-05  2.09E-13  2.09E-13  1.12E-05  3.28E-06  2.25E-06  2.09E-13  3.74E-05  3.17E-05  2.09E-13
              2.06E-05  2.74E-06
  22    9.00  2.73E-05  5.08E-05  2.43E-13  2.43E-13  1.33E-05  3.92E-06  2.66E-06  2.43E-13  3.74E-05  3.34E-05  2.43E-13
              2.49E-05  2.74E-06
  23    8.00  3.26E-05  5.99E-05  2.81E-13  2.81E-13  1.55E-05  4.65E-06  3.11E-06  2.81E-13  3.75E-05  3.53E-05  2.81E-13
              2.99E-05  2.74E-06
  24    7.00  3.87E-05  7.02E-05  3.24E-13  3.24E-13  1.81E-05  5.46E-06  3.63E-06  3.24E-13  3.75E-05  3.72E-05  3.24E-13
              3.54E-05  2.74E-06
  25    6.00  4.54E-05  8.18E-05  3.72E-13  3.72E-13  2.10E-05  6.38E-06  4.21E-06  3.72E-13  3.76E-05  3.89E-05  3.72E-13
              4.16E-05  2.74E-06
  26    5.00  5.29E-05  9.47E-05  4.26E-13  4.26E-13  2.42E-05  7.40E-06  4.85E-06  4.26E-13  3.78E-05  4.01E-05  4.26E-13
              4.86E-05  2.74E-06
  27    4.00  6.13E-05  1.09E-04  4.86E-13  4.86E-13  2.78E-05  8.54E-06  5.57E-06  4.86E-13  3.79E-05  4.09E-05  4.86E-13
              5.64E-05  2.74E-06
  28    3.00  7.06E-05  1.25E-04  5.52E-13  5.52E-13  3.17E-05  9.80E-06  6.37E-06  5.52E-13  3.82E-05  4.13E-05  5.52E-13
              6.50E-05  2.74E-06
  29    2.00  8.09E-05  1.43E-04  6.26E-13  6.26E-13  3.62E-05  1.12E-05  7.25E-06  6.26E-13  3.85E-05  4.16E-05  6.26E-13
              7.46E-05  2.74E-06
  30    1.00  9.23E-05  1.62E-04  7.07E-13  7.07E-13  4.10E-05  1.27E-05  8.23E-06  7.07E-13  3.89E-05  4.19E-05  7.07E-13
              8.52E-05  2.74E-06
  31    0.00  1.05E-04  1.84E-04  7.97E-13  7.97E-13  4.64E-05  1.45E-05  9.31E-06  7.97E-13  3.94E-05  4.20E-05  7.97E-13
              9.69E-05  2.74E-06


0SUMMARY OF THE GEOMETRY CALCULATION

          H1      =     70.000 KM
          H2      =      0.000 KM
          ANGLE   =    180.000 DEG
          RANGE   =     70.000 KM
          BETA    =      0.000 DEG
          PHI     =      0.000 DEG
          HMIN    =      0.000 KM
          BENDING =      0.000 DEG
          LEN     =          0




1EQUIVALENT SEA LEVEL TOTAL ABSORBER AMOUNTS

                 HNO3      O3 UV       CNTMSLF1    CNTMSLF2   CNTMFRN
               (ATM CM)   (ATM CM)     (MOL CM-2)  (MOL CM-2)  (MOL CM-2)  (MOL CM-2)

             0.000E+00   3.418E-01   2.370E+20   9.764E+19   4.260E+22


              N2 CONT    MOL SCAT       AER 1       AER 2       AER 3       AER 4     CIRRUS      MEAN RH
                                                                                                  (PRCNT)

             3.792E+00   7.977E+00   0.000E+00   0.000E+00   0.000E+00   0.000E+00   0.000E+00        0.00


                 H2O        O3          CO2         CO          CH4         N2O          O2
               (                                        ATM CM                            )

             1.884E+03   3.418E-01   6.377E+02   0.000E+00   1.314E+00   0.000E+00   1.666E+05

                 NH3        NO          NO2         SO2
                 (               ATM CM               )

             0.000E+00   0.000E+00   0.000E+00   0.000E+00

             CFC-11      CFC-12      CFC-13      CFC-14      CFC-22      CFC-113     CFC-114
                 (                                      ATM CM                            )

             1.049E-04   1.838E-04   7.972E-13   7.972E-13   4.643E-05   1.446E-05   9.309E-06

             CFC-115     CLONO2       HNO4       CHCL2F       CCL4        N2O5  
                 (                                      ATM CM                            )

             7.972E-13   3.936E-05   4.197E-05   7.972E-13   9.687E-05   2.744E-06
  iv           -5
  iv            0
1                                             RADIANCE(WATTS/CM2-STER-XXX)
0  FREQ   WAVLEN    PATH THERMAL      SURFACE EMISSION    SURFACE REFLECTED     TOTAL RADIANCE   INTEGRAL    TOTAL
  (CM-1) (MICRN)    (CM-1)   (MICRN)    (CM-1)   (MICRN)    (CM-1)   (MICRN)    (CM-1)   (MICRN)    (CM-1)   TRANS

      2. 4999.998  7.02E-10  2.81E-13  4.65E-10  1.86E-13  0.00E+00  0.00E+00  1.17E-09  4.67E-13  1.17E-09  0.39058
      4. 2500.000  2.42E-09  3.87E-12  1.44E-09  2.31E-12  0.00E+00  0.00E+00  3.86E-09  6.18E-12  8.89E-09  0.36913
      6. 1666.666  6.36E-09  2.29E-11  1.92E-09  6.91E-12  0.00E+00  0.00E+00  8.28E-09  2.98E-11  2.55E-08  0.25313
      8. 1250.000  1.22E-08  7.80E-11  2.21E-09  1.42E-11  0.00E+00  0.00E+00  1.44E-08  9.22E-11  5.43E-08  0.15693
     10. 1000.000  2.05E-08  2.05E-10  1.24E-09  1.24E-11  0.00E+00  0.00E+00  2.17E-08  2.17E-10  9.77E-08  0.06672
     12.  833.333  2.95E-08  4.25E-10  1.75E-10  2.53E-12  0.00E+00  0.00E+00  2.97E-08  4.28E-10  1.57E-07  0.00722
     14.  714.286  3.89E-08  7.62E-10  2.80E-12  5.49E-14  0.00E+00  0.00E+00  3.89E-08  7.63E-10  2.35E-07  0.00008
     16.  625.000  4.94E-08  1.26E-09  6.63E-14  1.70E-15  0.00E+00  0.00E+00  4.94E-08  1.26E-09  3.34E-07  0.00000
     18.  555.555  5.96E-08  1.93E-09  1.59E-14  5.17E-16  0.00E+00  0.00E+00  5.96E-08  1.93E-09  4.53E-07  0.00000
     20.  500.000  7.42E-08  2.97E-09  1.59E-14  6.37E-16  0.00E+00  0.00E+00  7.42E-08  2.97E-09  6.01E-07  0.00000
     22.  454.545  9.22E-08  4.46E-09  7.01E-18  3.39E-19  0.00E+00  0.00E+00  9.22E-08  4.46E-09  7.85E-07  0.00000
     24.  416.667  1.06E-07  6.08E-09  6.24E-18  3.60E-19  0.00E+00  0.00E+00  1.06E-07  6.08E-09  9.97E-07  0.00000
     26.  384.615  1.22E-07  8.24E-09  3.61E-18  2.44E-19  0.00E+00  0.00E+00  1.22E-07  8.24E-09  1.24E-06  0.00000
     28.  357.143  1.45E-07  1.14E-08  8.97E-20  7.03E-21  0.00E+00  0.00E+00  1.45E-07  1.14E-08  1.53E-06  0.00000
     30.  333.333  1.65E-07  1.48E-08  5.10E-20  4.59E-21  0.00E+00  0.00E+00  1.65E-07  1.48E-08  1.86E-06  0.00000
     32.  312.500  1.79E-07  1.83E-08  3.02E-26  3.10E-27  0.00E+00  0.00E+00  1.79E-07  1.83E-08  2.22E-06  0.00000
     34.  294.118  1.99E-07  2.30E-08  1.90E-35  2.19E-36  0.00E+00  0.00E+00  1.99E-07  2.30E-08  2.62E-06  0.00000
     36.  277.778  2.16E-07  2.80E-08  0.00E+00  0.00E+00  0.00E+00  0.00E+00  2.16E-07  2.80E-08  3.05E-06  0.00000
     38.  263.158  2.33E-07  3.37E-08  0.00E+00  0.00E+00  0.00E+00  0.00E+00  2.33E-07  3.37E-08  3.52E-06  0.00000
     40.  250.000  2.60E-07  4.16E-08  0.00E+00  0.00E+00  0.00E+00  0.00E+00  2.60E-07  4.16E-08  4.04E-06  0.00000
     42.  238.095  2.95E-07  5.20E-08  0.00E+00  0.00E+00  0.00E+00  0.00E+00  2.95E-07  5.20E-08  4.63E-06  0.00000
     44.  227.273  3.28E-07  6.34E-08  0.00E+00  0.00E+00  0.00E+00  0.00E+00  3.28E-07  6.34E-08  5.28E-06  0.00000
     46.  217.391  3.50E-07  7.40E-08  5.54E-42  1.17E-42  0.00E+00  0.00E+00  3.50E-07  7.40E-08  5.98E-06  0.00000
     48.  208.333  3.75E-07  8.64E-08  5.54E-42  1.28E-42  0.00E+00  0.00E+00  3.75E-07  8.64E-08  6.73E-06  0.00000
     50.  200.000  4.12E-07  1.03E-07  0.00E+00  0.00E+00  0.00E+00  0.00E+00  4.12E-07  1.03E-07  7.55E-06  0.00000
     52.  192.308  4.34E-07  1.17E-07  0.00E+00  0.00E+00  0.00E+00  0.00E+00  4.34E-07  1.17E-07  8.42E-06  0.00000
     54.  185.185  4.50E-07  1.31E-07  0.00E+00  0.00E+00  0.00E+00  0.00E+00  4.50E-07  1.31E-07  9.32E-06  0.00000
     56.  178.571  4.74E-07  1.49E-07  0.00E+00  0.00E+00  0.00E+00  0.00E+00  4.74E-07  1.49E-07  1.03E-05  0.00000
     58.  172.414  5.07E-07  1.71E-07  0.00E+00  0.00E+00  0.00E+00  0.00E+00  5.07E-07  1.71E-07  1.13E-05  0.00000
     60.  166.667  5.47E-07  1.97E-07  0.00E+00  0.00E+00  0.00E+00  0.00E+00  5.47E-07  1.97E-07  1.24E-05  0.00000
     62.  161.290  5.82E-07  2.24E-07  0.00E+00  0.00E+00  0.00E+00  0.00E+00  5.82E-07  2.24E-07  1.35E-05  0.00000
     64.  156.250  6.17E-07  2.53E-07  0.00E+00  0.00E+00  0.00E+00  0.00E+00  6.17E-07  2.53E-07  1.48E-05  0.00000
     66.  151.515  6.63E-07  2.89E-07  0.00E+00  0.00E+00  0.00E+00  0.00E+00  6.63E-07  2.89E-07  1.61E-05  0.00000
     68.  147.059  6.91E-07  3.20E-07  0.00E+00  0.00E+00  0.00E+00  0.00E+00  6.91E-07  3.20E-07  1.75E-05  0.00000
     70.  142.857  7.24E-07  3.55E-07  0.00E+00  0.00E+00  0.00E+00  0.00E+00  7.24E-07  3.55E-07  1.89E-05  0.00000
     72.  138.889  7.50E-07  3.89E-07  0.00E+00  0.00E+00  0.00E+00  0.00E+00  7.50E-07  3.89E-07  2.04E-05  0.00000
     74.  135.135  7.77E-07  4.26E-07  0.00E+00  0.00E+00  0.00E+00  0.00E+00  7.77E-07  4.26E-07  2.20E-05  0.00000
     76.  131.579  8.22E-07  4.75E-07  0.00E+00  0.00E+00  0.00E+00  0.00E+00  8.22E-07  4.75E-07  2.36E-05  0.00000
     78.  128.205  8.60E-07  5.23E-07  0.00E+00  0.00E+00  0.00E+00  0.00E+00  8.60E-07  5.23E-07  2.54E-05  0.00000
     80.  125.000  8.95E-07  5.73E-07  0.00E+00  0.00E+00  0.00E+00  0.00E+00  8.95E-07  5.73E-07  2.71E-05  0.00000
     82.  121.951  9.42E-07  6.34E-07  0.00E+00  0.00E+00  0.00E+00  0.00E+00  9.42E-07  6.34E-07  2.90E-05  0.00000
     84.  119.048  1.00E-06  7.05E-07  0.00E+00  0.00E+00  0.00E+00  0.00E+00  1.00E-06  7.05E-07  3.10E-05  0.00000
     86.  116.279  1.03E-06  7.62E-07  0.00E+00  0.00E+00  0.00E+00  0.00E+00  1.03E-06  7.62E-07  3.31E-05  0.00000
     88.  113.636  1.05E-06  8.13E-07  0.00E+00  0.00E+00  0.00E+00  0.00E+00  1.05E-06  8.13E-07  3.52E-05  0.00000
     90.  111.111  1.09E-06  8.81E-07  0.00E+00  0.00E+00  0.00E+00  0.00E+00  1.09E-06  8.81E-07  3.74E-05  0.00000
     92.  108.696  1.13E-06  9.55E-07  0.00E+00  0.00E+00  0.00E+00  0.00E+00  1.13E-06  9.55E-07  3.96E-05  0.00000
     94.  106.383  1.18E-06  1.04E-06  0.00E+00  0.00E+00  0.00E+00  0.00E+00  1.18E-06  1.04E-06  4.20E-05  0.00000
     96.  104.167  1.22E-06  1.13E-06  0.00E+00  0.00E+00  0.00E+00  0.00E+00  1.22E-06  1.13E-06  4.44E-05  0.00000
     98.  102.041  1.26E-06  1.21E-06  0.00E+00  0.00E+00  0.00E+00  0.00E+00  1.26E-06  1.21E-06  4.69E-05  0.00000
    100.  100.000  1.29E-06  1.29E-06  0.00E+00  0.00E+00  0.00E+00  0.00E+00  1.29E-06  1.29E-06  4.95E-05  0.00000
  iv          105
1                                             RADIANCE(WATTS/CM2-STER-XXX)
0  FREQ   WAVLEN    PATH THERMAL      SURFACE EMISSION    SURFACE REFLECTED     TOTAL RADIANCE   INTEGRAL    TOTAL
  (CM-1) (MICRN)    (CM-1)   (MICRN)    (CM-1)   (MICRN)    (CM-1)   (MICRN)    (CM-1)   (MICRN)    (CM-1)   TRANS

    102.   98.039  1.34E-06  1.40E-06  0.00E+00  0.00E+00  0.00E+00  0.00E+00  1.34E-06  1.40E-06  5.22E-05  0.00000
    104.   96.154  1.38E-06  1.50E-06  0.00E+00  0.00E+00  0.00E+00  0.00E+00  1.38E-06  1.50E-06  5.50E-05  0.00000
    106.   94.340  1.43E-06  1.61E-06  0.00E+00  0.00E+00  0.00E+00  0.00E+00  1.43E-06  1.61E-06  5.78E-05  0.00000
    108.   92.593  1.50E-06  1.75E-06  0.00E+00  0.00E+00  0.00E+00  0.00E+00  1.50E-06  1.75E-06  6.08E-05  0.00000
    110.   90.909  1.54E-06  1.87E-06  0.00E+00  0.00E+00  0.00E+00  0.00E+00  1.54E-06  1.87E-06  6.39E-05  0.00000
    112.   89.286  1.59E-06  1.99E-06  0.00E+00  0.00E+00  0.00E+00  0.00E+00  1.59E-06  1.99E-06  6.71E-05  0.00000
    114.   87.719  1.69E-06  2.19E-06  0.00E+00  0.00E+00  0.00E+00  0.00E+00  1.69E-06  2.19E-06  7.05E-05  0.00000
    116.   86.207  1.73E-06  2.32E-06  0.00E+00  0.00E+00  0.00E+00  0.00E+00  1.73E-06  2.32E-06  7.39E-05  0.00000
    118.   84.746  1.73E-06  2.41E-06  0.00E+00  0.00E+00  0.00E+00  0.00E+00  1.73E-06  2.41E-06  7.74E-05  0.00000
    120.   83.333  1.74E-06  2.51E-06  0.00E+00  0.00E+00  0.00E+00  0.00E+00  1.74E-06  2.51E-06  8.09E-05  0.00000
    122.   81.967  1.78E-06  2.65E-06  0.00E+00  0.00E+00  0.00E+00  0.00E+00  1.78E-06  2.65E-06  8.44E-05  0.00000
    124.   80.645  1.85E-06  2.84E-06  0.00E+00  0.00E+00  0.00E+00  0.00E+00  1.85E-06  2.84E-06  8.81E-05  0.00000
    126.   79.365  1.88E-06  2.98E-06  0.00E+00  0.00E+00  0.00E+00  0.00E+00  1.88E-06  2.98E-06  9.19E-05  0.00000
    128.   78.125  1.93E-06  3.17E-06  0.00E+00  0.00E+00  0.00E+00  0.00E+00  1.93E-06  3.17E-06  9.58E-05  0.00000
    130.   76.923  2.00E-06  3.38E-06  0.00E+00  0.00E+00  0.00E+00  0.00E+00  2.00E-06  3.38E-06  9.98E-05  0.00000
    132.   75.758  2.02E-06  3.51E-06  0.00E+00  0.00E+00  0.00E+00  0.00E+00  2.02E-06  3.51E-06  1.04E-04  0.00000
    134.   74.627  2.08E-06  3.74E-06  0.00E+00  0.00E+00  0.00E+00  0.00E+00  2.08E-06  3.74E-06  1.08E-04  0.00000
    136.   73.529  2.17E-06  4.00E-06  0.00E+00  0.00E+00  0.00E+00  0.00E+00  2.17E-06  4.00E-06  1.12E-04  0.00000
    138.   72.464  2.17E-06  4.13E-06  0.00E+00  0.00E+00  0.00E+00  0.00E+00  2.17E-06  4.13E-06  1.17E-04  0.00000
    140.   71.429  2.19E-06  4.30E-06  0.00E+00  0.00E+00  0.00E+00  0.00E+00  2.19E-06  4.30E-06  1.21E-04  0.00000
    142.   70.423  2.31E-06  4.65E-06  0.00E+00  0.00E+00  0.00E+00  0.00E+00  2.31E-06  4.65E-06  1.26E-04  0.00000
    144.   69.444  2.41E-06  5.00E-06  0.00E+00  0.00E+00  0.00E+00  0.00E+00  2.41E-06  5.00E-06  1.30E-04  0.00000
    146.   68.493  2.43E-06  5.19E-06  0.00E+00  0.00E+00  0.00E+00  0.00E+00  2.43E-06  5.19E-06  1.35E-04  0.00000
    148.   67.568  2.41E-06  5.28E-06  0.00E+00  0.00E+00  0.00E+00  0.00E+00  2.41E-06  5.28E-06  1.40E-04  0.00000
    150.   66.667  2.41E-06  5.43E-06  0.00E+00  0.00E+00  0.00E+00  0.00E+00  2.41E-06  5.43E-06  1.45E-04  0.00000
    152.   65.789  2.46E-06  5.68E-06  0.00E+00  0.00E+00  0.00E+00  0.00E+00  2.46E-06  5.68E-06  1.50E-04  0.00000
    154.   64.935  2.53E-06  6.00E-06  0.00E+00  0.00E+00  0.00E+00  0.00E+00  2.53E-06  6.00E-06  1.55E-04  0.00000
    156.   64.103  2.60E-06  6.32E-06  0.00E+00  0.00E+00  0.00E+00  0.00E+00  2.60E-06  6.32E-06  1.60E-04  0.00000
    158.   63.291  2.65E-06  6.61E-06  0.00E+00  0.00E+00  0.00E+00  0.00E+00  2.65E-06  6.61E-06  1.65E-04  0.00000
    160.   62.500  2.76E-06  7.08E-06  0.00E+00  0.00E+00  0.00E+00  0.00E+00  2.76E-06  7.08E-06  1.71E-04  0.00000
    162.   61.728  2.86E-06  7.51E-06  0.00E+00  0.00E+00  0.00E+00  0.00E+00  2.86E-06  7.51E-06  1.77E-04  0.00000
    164.   60.976  2.92E-06  7.86E-06  0.00E+00  0.00E+00  0.00E+00  0.00E+00  2.92E-06  7.86E-06  1.83E-04  0.00000
    166.   60.241  2.89E-06  7.96E-06  0.00E+00  0.00E+00  0.00E+00  0.00E+00  2.89E-06  7.96E-06  1.88E-04  0.00000
    168.   59.524  2.88E-06  8.12E-06  0.00E+00  0.00E+00  0.00E+00  0.00E+00  2.88E-06  8.12E-06  1.94E-04  0.00000
    170.   58.824  2.89E-06  8.35E-06  0.00E+00  0.00E+00  0.00E+00  0.00E+00  2.89E-06  8.35E-06  2.00E-04  0.00000
    172.   58.140  2.94E-06  8.69E-06  0.00E+00  0.00E+00  0.00E+00  0.00E+00  2.94E-06  8.69E-06  2.06E-04  0.00000
    174.   57.471  3.00E-06  9.09E-06  0.00E+00  0.00E+00  0.00E+00  0.00E+00  3.00E-06  9.09E-06  2.12E-04  0.00000
    176.   56.818  3.04E-06  9.41E-06  0.00E+00  0.00E+00  0.00E+00  0.00E+00  3.04E-06  9.41E-06  2.18E-04  0.00000
    178.   56.180  3.09E-06  9.79E-06  0.00E+00  0.00E+00  0.00E+00  0.00E+00  3.09E-06  9.79E-06  2.24E-04  0.00000
    180.   55.556  3.20E-06  1.04E-05  0.00E+00  0.00E+00  0.00E+00  0.00E+00  3.20E-06  1.04E-05  2.30E-04  0.00000
    182.   54.945  3.27E-06  1.08E-05  0.00E+00  0.00E+00  0.00E+00  0.00E+00  3.27E-06  1.08E-05  2.37E-04  0.00000
    184.   54.348  3.40E-06  1.15E-05  0.00E+00  0.00E+00  0.00E+00  0.00E+00  3.40E-06  1.15E-05  2.44E-04  0.00000
    186.   53.763  3.45E-06  1.19E-05  0.00E+00  0.00E+00  0.00E+00  0.00E+00  3.45E-06  1.19E-05  2.51E-04  0.00000
    188.   53.191  3.39E-06  1.20E-05  0.00E+00  0.00E+00  0.00E+00  0.00E+00  3.39E-06  1.20E-05  2.57E-04  0.00000
    190.   52.632  3.52E-06  1.27E-05  0.00E+00  0.00E+00  0.00E+00  0.00E+00  3.52E-06  1.27E-05  2.64E-04  0.00000
    192.   52.083  3.60E-06  1.33E-05  0.00E+00  0.00E+00  0.00E+00  0.00E+00  3.60E-06  1.33E-05  2.72E-04  0.00000
    194.   51.546  3.56E-06  1.34E-05  0.00E+00  0.00E+00  0.00E+00  0.00E+00  3.56E-06  1.34E-05  2.79E-04  0.00000
    196.   51.020  3.62E-06  1.39E-05  0.00E+00  0.00E+00  0.00E+00  0.00E+00  3.62E-06  1.39E-05  2.86E-04  0.00000
    198.   50.505  3.68E-06  1.44E-05  0.00E+00  0.00E+00  0.00E+00  0.00E+00  3.68E-06  1.44E-05  2.93E-04  0.00000
    200.   50.000  3.66E-06  1.46E-05  0.00E+00  0.00E+00  0.00E+00  0.00E+00  3.66E-06  1.46E-05  3.01E-04  0.00000
  iv          205
1                                             RADIANCE(WATTS/CM2-STER-XXX)
0  FREQ   WAVLEN    PATH THERMAL      SURFACE EMISSION    SURFACE REFLECTED     TOTAL RADIANCE   INTEGRAL    TOTAL
  (CM-1) (MICRN)    (CM-1)   (MICRN)    (CM-1)   (MICRN)    (CM-1)   (MICRN)    (CM-1)   (MICRN)    (CM-1)   TRANS

    202.   49.505  3.61E-06  1.47E-05  0.00E+00  0.00E+00  0.00E+00  0.00E+00  3.61E-06  1.47E-05  3.08E-04  0.00000
    204.   49.020  3.68E-06  1.53E-05  0.00E+00  0.00E+00  0.00E+00  0.00E+00  3.68E-06  1.53E-05  3.15E-04  0.00000
    206.   48.544  3.76E-06  1.60E-05  0.00E+00  0.00E+00  0.00E+00  0.00E+00  3.76E-06  1.60E-05  3.23E-04  0.00000
    208.   48.077  3.75E-06  1.62E-05  0.00E+00  0.00E+00  0.00E+00  0.00E+00  3.75E-06  1.62E-05  3.30E-04  0.00000
    210.   47.619  3.87E-06  1.71E-05  0.00E+00  0.00E+00  0.00E+00  0.00E+00  3.87E-06  1.71E-05  3.38E-04  0.00000
    212.   47.170  3.97E-06  1.78E-05  0.00E+00  0.00E+00  0.00E+00  0.00E+00  3.97E-06  1.78E-05  3.46E-04  0.00000
    214.   46.729  3.97E-06  1.82E-05  0.00E+00  0.00E+00  0.00E+00  0.00E+00  3.97E-06  1.82E-05  3.54E-04  0.00000
    216.   46.296  4.15E-06  1.94E-05  0.00E+00  0.00E+00  0.00E+00  0.00E+00  4.15E-06  1.94E-05  3.62E-04  0.00000
    218.   45.872  4.30E-06  2.04E-05  0.00E+00  0.00E+00  0.00E+00  0.00E+00  4.30E-06  2.04E-05  3.71E-04  0.00000
    220.   45.455  4.19E-06  2.03E-05  0.00E+00  0.00E+00  0.00E+00  0.00E+00  4.19E-06  2.03E-05  3.79E-04  0.00000
    222.   45.045  4.07E-06  2.01E-05  0.00E+00  0.00E+00  0.00E+00  0.00E+00  4.07E-06  2.01E-05  3.87E-04  0.00000
    224.   44.643  4.12E-06  2.07E-05  0.00E+00  0.00E+00  0.00E+00  0.00E+00  4.12E-06  2.07E-05  3.96E-04  0.00000
    226.   44.248  4.11E-06  2.10E-05  0.00E+00  0.00E+00  0.00E+00  0.00E+00  4.11E-06  2.10E-05  4.04E-04  0.00000
    228.   43.860  4.16E-06  2.16E-05  0.00E+00  0.00E+00  0.00E+00  0.00E+00  4.16E-06  2.16E-05  4.12E-04  0.00000
    230.   43.478  4.36E-06  2.31E-05  0.00E+00  0.00E+00  0.00E+00  0.00E+00  4.36E-06  2.31E-05  4.21E-04  0.00000
    232.   43.103  4.50E-06  2.42E-05  0.00E+00  0.00E+00  0.00E+00  0.00E+00  4.50E-06  2.42E-05  4.30E-04  0.00000
    234.   42.735  4.67E-06  2.56E-05  0.00E+00  0.00E+00  0.00E+00  0.00E+00  4.67E-06  2.56E-05  4.39E-04  0.00000
    236.   42.373  4.82E-06  2.68E-05  0.00E+00  0.00E+00  0.00E+00  0.00E+00  4.82E-06  2.68E-05  4.49E-04  0.00000
    238.   42.017  4.89E-06  2.77E-05  0.00E+00  0.00E+00  0.00E+00  0.00E+00  4.89E-06  2.77E-05  4.59E-04  0.00000
    240.   41.667  4.93E-06  2.84E-05  0.00E+00  0.00E+00  0.00E+00  0.00E+00  4.93E-06  2.84E-05  4.68E-04  0.00000
    242.   41.322  4.88E-06  2.86E-05  0.00E+00  0.00E+00  0.00E+00  0.00E+00  4.88E-06  2.86E-05  4.78E-04  0.00000
    244.   40.984  4.65E-06  2.77E-05  0.00E+00  0.00E+00  0.00E+00  0.00E+00  4.65E-06  2.77E-05  4.87E-04  0.00000
    246.   40.650  4.48E-06  2.71E-05  0.00E+00  0.00E+00  0.00E+00  0.00E+00  4.48E-06  2.71E-05  4.96E-04  0.00000
    248.   40.323  4.57E-06  2.81E-05  0.00E+00  0.00E+00  0.00E+00  0.00E+00  4.57E-06  2.81E-05  5.06E-04  0.00000
    250.   40.000  4.78E-06  2.98E-05  0.00E+00  0.00E+00  0.00E+00  0.00E+00  4.78E-06  2.98E-05  5.15E-04  0.00000
    252.   39.683  4.74E-06  3.01E-05  0.00E+00  0.00E+00  0.00E+00  0.00E+00  4.74E-06  3.01E-05  5.25E-04  0.00000
    254.   39.370  4.69E-06  3.03E-05  0.00E+00  0.00E+00  0.00E+00  0.00E+00  4.69E-06  3.03E-05  5.34E-04  0.00000
    256.   39.063  4.94E-06  3.24E-05  0.00E+00  0.00E+00  0.00E+00  0.00E+00  4.94E-06  3.24E-05  5.44E-04  0.00000
    258.   38.760  5.23E-06  3.48E-05  0.00E+00  0.00E+00  0.00E+00  0.00E+00  5.23E-06  3.48E-05  5.54E-04  0.00000
    260.   38.462  5.40E-06  3.65E-05  0.00E+00  0.00E+00  0.00E+00  0.00E+00  5.40E-06  3.65E-05  5.65E-04  0.00000
    262.   38.168  5.43E-06  3.72E-05  0.00E+00  0.00E+00  0.00E+00  0.00E+00  5.43E-06  3.72E-05  5.76E-04  0.00000
    264.   37.879  5.36E-06  3.74E-05  0.00E+00  0.00E+00  0.00E+00  0.00E+00  5.36E-06  3.74E-05  5.87E-04  0.00000
    266.   37.594  5.21E-06  3.69E-05  0.00E+00  0.00E+00  0.00E+00  0.00E+00  5.21E-06  3.69E-05  5.97E-04  0.00000
    268.   37.313  5.41E-06  3.88E-05  0.00E+00  0.00E+00  0.00E+00  0.00E+00  5.41E-06  3.88E-05  6.08E-04  0.00000
    270.   37.037  5.64E-06  4.11E-05  0.00E+00  0.00E+00  0.00E+00  0.00E+00  5.64E-06  4.11E-05  6.19E-04  0.00000
    272.   36.765  5.64E-06  4.17E-05  0.00E+00  0.00E+00  0.00E+00  0.00E+00  5.64E-06  4.17E-05  6.30E-04  0.00000
    274.   36.496  5.53E-06  4.15E-05  0.00E+00  0.00E+00  0.00E+00  0.00E+00  5.53E-06  4.15E-05  6.42E-04  0.00000
    276.   36.232  5.23E-06  3.99E-05  0.00E+00  0.00E+00  0.00E+00  0.00E+00  5.23E-06  3.99E-05  6.52E-04  0.00000
    278.   35.971  5.05E-06  3.90E-05  0.00E+00  0.00E+00  0.00E+00  0.00E+00  5.05E-06  3.90E-05  6.62E-04  0.00000
    280.   35.714  5.09E-06  3.99E-05  0.00E+00  0.00E+00  0.00E+00  0.00E+00  5.09E-06  3.99E-05  6.72E-04  0.00000
    282.   35.461  5.20E-06  4.13E-05  0.00E+00  0.00E+00  0.00E+00  0.00E+00  5.20E-06  4.13E-05  6.83E-04  0.00000
    284.   35.211  5.55E-06  4.47E-05  0.00E+00  0.00E+00  0.00E+00  0.00E+00  5.55E-06  4.47E-05  6.94E-04  0.00000
    286.   34.965  5.80E-06  4.74E-05  0.00E+00  0.00E+00  0.00E+00  0.00E+00  5.80E-06  4.74E-05  7.05E-04  0.00000
    288.   34.722  5.61E-06  4.65E-05  0.00E+00  0.00E+00  0.00E+00  0.00E+00  5.61E-06  4.65E-05  7.17E-04  0.00000
    290.   34.483  5.52E-06  4.64E-05  0.00E+00  0.00E+00  0.00E+00  0.00E+00  5.52E-06  4.64E-05  7.28E-04  0.00000
    292.   34.247  5.94E-06  5.07E-05  0.00E+00  0.00E+00  0.00E+00  0.00E+00  5.94E-06  5.07E-05  7.39E-04  0.00000
    294.   34.014  6.20E-06  5.36E-05  0.00E+00  0.00E+00  0.00E+00  0.00E+00  6.20E-06  5.36E-05  7.52E-04  0.00000
    296.   33.784  6.17E-06  5.41E-05  0.00E+00  0.00E+00  0.00E+00  0.00E+00  6.17E-06  5.41E-05  7.64E-04  0.00000
    298.   33.557  6.05E-06  5.38E-05  0.00E+00  0.00E+00  0.00E+00  0.00E+00  6.05E-06  5.38E-05  7.76E-04  0.00000
    300.   33.333  5.87E-06  5.28E-05  0.00E+00  0.00E+00  0.00E+00  0.00E+00  5.87E-06  5.28E-05  7.88E-04  0.00000
  iv          305
1                                             RADIANCE(WATTS/CM2-STER-XXX)
0  FREQ   WAVLEN    PATH THERMAL      SURFACE EMISSION    SURFACE REFLECTED     TOTAL RADIANCE   INTEGRAL    TOTAL
  (CM-1) (MICRN)    (CM-1)   (MICRN)    (CM-1)   (MICRN)    (CM-1)   (MICRN)    (CM-1)   (MICRN)    (CM-1)   TRANS

    302.   33.113  5.54E-06  5.05E-05  0.00E+00  0.00E+00  0.00E+00  0.00E+00  5.54E-06  5.05E-05  7.99E-04  0.00000
    304.   32.895  5.68E-06  5.25E-05  0.00E+00  0.00E+00  0.00E+00  0.00E+00  5.68E-06  5.25E-05  8.11E-04  0.00000
    306.   32.680  6.19E-06  5.80E-05  0.00E+00  0.00E+00  0.00E+00  0.00E+00  6.19E-06  5.80E-05  8.23E-04  0.00000
    308.   32.468  6.42E-06  6.09E-05  0.00E+00  0.00E+00  0.00E+00  0.00E+00  6.42E-06  6.09E-05  8.36E-04  0.00000
    310.   32.258  6.53E-06  6.27E-05  4.20E-45  4.06E-44  0.00E+00  0.00E+00  6.53E-06  6.27E-05  8.49E-04  0.00000
    312.   32.051  6.59E-06  6.41E-05  9.81E-45  9.53E-44  0.00E+00  0.00E+00  6.59E-06  6.41E-05  8.62E-04  0.00000
    314.   31.847  6.32E-06  6.23E-05  1.15E-41  1.13E-40  0.00E+00  0.00E+00  6.32E-06  6.23E-05  8.75E-04  0.00000
    316.   31.646  6.34E-06  6.33E-05  1.33E-41  1.32E-40  0.00E+00  0.00E+00  6.34E-06  6.33E-05  8.87E-04  0.00000
    318.   31.447  6.74E-06  6.82E-05  8.40E-42  8.49E-41  0.00E+00  0.00E+00  6.74E-06  6.82E-05  9.01E-04  0.00000
    320.   31.250  6.72E-06  6.88E-05  4.89E-42  5.01E-41  0.00E+00  0.00E+00  6.72E-06  6.88E-05  9.14E-04  0.00000
    322.   31.056  6.32E-06  6.55E-05  0.00E+00  0.00E+00  0.00E+00  0.00E+00  6.32E-06  6.55E-05  9.27E-04  0.00000
    324.   30.864  6.03E-06  6.33E-05  0.00E+00  0.00E+00  0.00E+00  0.00E+00  6.03E-06  6.33E-05  9.39E-04  0.00000
    326.   30.675  6.17E-06  6.56E-05  0.00E+00  0.00E+00  0.00E+00  0.00E+00  6.17E-06  6.56E-05  9.51E-04  0.00000
    328.   30.488  6.14E-06  6.60E-05  0.00E+00  0.00E+00  0.00E+00  0.00E+00  6.14E-06  6.60E-05  9.64E-04  0.00000
    330.   30.303  6.65E-06  7.24E-05  7.01E-45  7.57E-44  0.00E+00  0.00E+00  6.65E-06  7.24E-05  9.77E-04  0.00000
    332.   30.120  6.93E-06  7.64E-05  2.24E-44  2.47E-43  0.00E+00  0.00E+00  6.93E-06  7.64E-05  9.91E-04  0.00000
    334.   29.940  6.51E-06  7.26E-05  9.91E-37  1.11E-35  0.00E+00  0.00E+00  6.51E-06  7.26E-05  1.00E-03  0.00000
    336.   29.762  6.44E-06  7.27E-05  9.97E-37  1.13E-35  0.00E+00  0.00E+00  6.44E-06  7.27E-05  1.02E-03  0.00000
    338.   29.586  6.99E-06  7.98E-05  2.60E-38  2.98E-37  0.00E+00  0.00E+00  6.99E-06  7.98E-05  1.03E-03  0.00000
    340.   29.412  6.84E-06  7.90E-05  5.58E-33  6.45E-32  0.00E+00  0.00E+00  6.84E-06  7.90E-05  1.04E-03  0.00000
    342.   29.240  6.78E-06  7.93E-05  7.87E-33  9.20E-32  0.00E+00  0.00E+00  6.78E-06  7.93E-05  1.06E-03  0.00000
    344.   29.070  7.04E-06  8.34E-05  2.34E-33  2.77E-32  0.00E+00  0.00E+00  7.04E-06  8.34E-05  1.07E-03  0.00000
    346.   28.902  7.17E-06  8.59E-05  1.64E-34  1.97E-33  0.00E+00  0.00E+00  7.17E-06  8.59E-05  1.09E-03  0.00000
    348.   28.736  6.97E-06  8.44E-05  5.50E-35  6.66E-34  0.00E+00  0.00E+00  6.97E-06  8.44E-05  1.10E-03  0.00000
    350.   28.571  6.50E-06  7.96E-05  0.00E+00  0.00E+00  0.00E+00  0.00E+00  6.50E-06  7.96E-05  1.11E-03  0.00000
    352.   28.409  6.43E-06  7.97E-05  0.00E+00  0.00E+00  0.00E+00  0.00E+00  6.43E-06  7.97E-05  1.13E-03  0.00000
    354.   28.249  6.51E-06  8.15E-05  0.00E+00  0.00E+00  0.00E+00  0.00E+00  6.51E-06  8.15E-05  1.14E-03  0.00000
    356.   28.090  6.58E-06  8.33E-05  5.61E-45  7.15E-44  0.00E+00  0.00E+00  6.58E-06  8.33E-05  1.15E-03  0.00000
    358.   27.933  6.82E-06  8.74E-05  1.73E-30  2.22E-29  0.00E+00  0.00E+00  6.82E-06  8.74E-05  1.17E-03  0.00000
    360.   27.778  7.53E-06  9.76E-05  3.75E-23  4.86E-22  0.00E+00  0.00E+00  7.53E-06  9.76E-05  1.18E-03  0.00000
    362.   27.624  7.84E-06  1.03E-04  2.87E-20  3.77E-19  0.00E+00  0.00E+00  7.84E-06  1.03E-04  1.20E-03  0.00000
    364.   27.473  7.98E-06  1.06E-04  4.10E-19  5.43E-18  0.00E+00  0.00E+00  7.98E-06  1.06E-04  1.21E-03  0.00000
    366.   27.322  8.07E-06  1.08E-04  7.41E-19  9.93E-18  0.00E+00  0.00E+00  8.07E-06  1.08E-04  1.23E-03  0.00000
    368.   27.174  7.64E-06  1.03E-04  2.17E-19  2.94E-18  0.00E+00  0.00E+00  7.64E-06  1.03E-04  1.24E-03  0.00000
    370.   27.027  7.26E-06  9.93E-05  1.92E-24  2.63E-23  0.00E+00  0.00E+00  7.26E-06  9.93E-05  1.26E-03  0.00000
    372.   26.882  7.57E-06  1.05E-04  3.86E-26  5.34E-25  0.00E+00  0.00E+00  7.57E-06  1.05E-04  1.27E-03  0.00000
    374.   26.738  7.07E-06  9.88E-05  3.88E-27  5.43E-26  0.00E+00  0.00E+00  7.07E-06  9.88E-05  1.29E-03  0.00000
    376.   26.596  7.04E-06  9.95E-05  5.64E-27  7.97E-26  0.00E+00  0.00E+00  7.04E-06  9.95E-05  1.30E-03  0.00000
    378.   26.455  7.82E-06  1.12E-04  1.08E-18  1.55E-17  0.00E+00  0.00E+00  7.82E-06  1.12E-04  1.32E-03  0.00000
    380.   26.316  8.22E-06  1.19E-04  6.58E-18  9.50E-17  0.00E+00  0.00E+00  8.22E-06  1.19E-04  1.33E-03  0.00000
    382.   26.178  8.14E-06  1.19E-04  5.99E-18  8.74E-17  0.00E+00  0.00E+00  8.14E-06  1.19E-04  1.35E-03  0.00000
    384.   26.042  7.38E-06  1.09E-04  7.84E-19  1.16E-17  0.00E+00  0.00E+00  7.38E-06  1.09E-04  1.36E-03  0.00000
    386.   25.907  7.42E-06  1.11E-04  2.65E-16  3.94E-15  0.00E+00  0.00E+00  7.42E-06  1.11E-04  1.38E-03  0.00000
    388.   25.773  8.37E-06  1.26E-04  7.39E-15  1.11E-13  0.00E+00  0.00E+00  8.37E-06  1.26E-04  1.40E-03  0.00000
    390.   25.641  8.67E-06  1.32E-04  1.48E-14  2.25E-13  0.00E+00  0.00E+00  8.67E-06  1.32E-04  1.41E-03  0.00000
    392.   25.510  8.47E-06  1.30E-04  6.03E-15  9.26E-14  0.00E+00  0.00E+00  8.47E-06  1.30E-04  1.43E-03  0.00000
    394.   25.381  7.75E-06  1.20E-04  4.00E-17  6.21E-16  0.00E+00  0.00E+00  7.75E-06  1.20E-04  1.45E-03  0.00000
    396.   25.253  7.10E-06  1.11E-04  9.83E-22  1.54E-20  0.00E+00  0.00E+00  7.10E-06  1.11E-04  1.46E-03  0.00000
    398.   25.126  6.95E-06  1.10E-04  8.10E-33  1.28E-31  0.00E+00  0.00E+00  6.95E-06  1.10E-04  1.47E-03  0.00000
    400.   25.000  7.57E-06  1.21E-04  1.41E-16  2.26E-15  0.00E+00  0.00E+00  7.57E-06  1.21E-04  1.49E-03  0.00000
  iv          405
1                                             RADIANCE(WATTS/CM2-STER-XXX)
0  FREQ   WAVLEN    PATH THERMAL      SURFACE EMISSION    SURFACE REFLECTED     TOTAL RADIANCE   INTEGRAL    TOTAL
  (CM-1) (MICRN)    (CM-1)   (MICRN)    (CM-1)   (MICRN)    (CM-1)   (MICRN)    (CM-1)   (MICRN)    (CM-1)   TRANS

    402.   24.876  8.63E-06  1.39E-04  4.14E-13  6.70E-12  0.00E+00  0.00E+00  8.63E-06  1.39E-04  1.51E-03  0.00000
    404.   24.752  9.02E-06  1.47E-04  3.25E-12  5.30E-11  0.00E+00  0.00E+00  9.02E-06  1.47E-04  1.52E-03  0.00000
    406.   24.631  9.15E-06  1.51E-04  3.14E-11  5.18E-10  0.00E+00  0.00E+00  9.15E-06  1.51E-04  1.54E-03  0.00000
    408.   24.510  9.33E-06  1.55E-04  8.94E-11  1.49E-09  0.00E+00  0.00E+00  9.33E-06  1.55E-04  1.56E-03  0.00001
    410.   24.390  9.37E-06  1.58E-04  1.07E-10  1.80E-09  0.00E+00  0.00E+00  9.38E-06  1.58E-04  1.58E-03  0.00001
    412.   24.272  9.36E-06  1.59E-04  7.22E-11  1.23E-09  0.00E+00  0.00E+00  9.36E-06  1.59E-04  1.60E-03  0.00001
    414.   24.155  9.13E-06  1.56E-04  1.81E-11  3.11E-10  0.00E+00  0.00E+00  9.13E-06  1.56E-04  1.62E-03  0.00000
    416.   24.038  8.45E-06  1.46E-04  4.78E-13  8.27E-12  0.00E+00  0.00E+00  8.45E-06  1.46E-04  1.63E-03  0.00000
    418.   23.923  7.32E-06  1.28E-04  1.31E-18  2.29E-17  0.00E+00  0.00E+00  7.32E-06  1.28E-04  1.65E-03  0.00000
    420.   23.810  7.37E-06  1.30E-04  1.25E-27  2.21E-26  0.00E+00  0.00E+00  7.37E-06  1.30E-04  1.66E-03  0.00000
    422.   23.697  8.15E-06  1.45E-04  3.52E-19  6.27E-18  0.00E+00  0.00E+00  8.15E-06  1.45E-04  1.68E-03  0.00000
    424.   23.585  8.37E-06  1.50E-04  3.19E-16  5.73E-15  0.00E+00  0.00E+00  8.37E-06  1.50E-04  1.70E-03  0.00000
    426.   23.474  8.71E-06  1.58E-04  5.11E-11  9.27E-10  0.00E+00  0.00E+00  8.71E-06  1.58E-04  1.71E-03  0.00000
    428.   23.364  9.39E-06  1.72E-04  2.44E-10  4.47E-09  0.00E+00  0.00E+00  9.39E-06  1.72E-04  1.73E-03  0.00002
    430.   23.256  9.13E-06  1.69E-04  1.70E-10  3.15E-09  0.00E+00  0.00E+00  9.13E-06  1.69E-04  1.75E-03  0.00001
    432.   23.148  9.07E-06  1.69E-04  2.59E-10  4.84E-09  0.00E+00  0.00E+00  9.07E-06  1.69E-04  1.77E-03  0.00002
    434.   23.041  9.34E-06  1.76E-04  2.54E-10  4.79E-09  0.00E+00  0.00E+00  9.34E-06  1.76E-04  1.79E-03  0.00002
    436.   22.936  9.13E-06  1.73E-04  1.73E-10  3.28E-09  0.00E+00  0.00E+00  9.13E-06  1.73E-04  1.81E-03  0.00001
    438.   22.831  9.65E-06  1.85E-04  1.07E-09  2.05E-08  0.00E+00  0.00E+00  9.65E-06  1.85E-04  1.83E-03  0.00009
    440.   22.727  9.34E-06  1.81E-04  8.81E-10  1.71E-08  0.00E+00  0.00E+00  9.34E-06  1.81E-04  1.84E-03  0.00007
    442.   22.624  8.27E-06  1.61E-04  7.30E-11  1.43E-09  0.00E+00  0.00E+00  8.27E-06  1.61E-04  1.86E-03  0.00001
    444.   22.523  8.70E-06  1.72E-04  1.41E-11  2.78E-10  0.00E+00  0.00E+00  8.70E-06  1.72E-04  1.88E-03  0.00000
    446.   22.422  9.24E-06  1.84E-04  2.12E-10  4.22E-09  0.00E+00  0.00E+00  9.24E-06  1.84E-04  1.90E-03  0.00002
    448.   22.321  9.71E-06  1.95E-04  3.69E-09  7.41E-08  0.00E+00  0.00E+00  9.72E-06  1.95E-04  1.92E-03  0.00029
    450.   22.222  9.96E-06  2.02E-04  4.06E-09  8.22E-08  0.00E+00  0.00E+00  9.96E-06  2.02E-04  1.94E-03  0.00032
    452.   22.124  9.32E-06  1.90E-04  5.20E-10  1.06E-08  0.00E+00  0.00E+00  9.32E-06  1.90E-04  1.95E-03  0.00004
    454.   22.026  9.25E-06  1.91E-04  1.79E-11  3.69E-10  0.00E+00  0.00E+00  9.25E-06  1.91E-04  1.97E-03  0.00000
    456.   21.930  8.60E-06  1.79E-04  5.22E-12  1.08E-10  0.00E+00  0.00E+00  8.60E-06  1.79E-04  1.99E-03  0.00000
    458.   21.834  8.00E-06  1.68E-04  1.75E-12  3.67E-11  0.00E+00  0.00E+00  8.00E-06  1.68E-04  2.01E-03  0.00000
    460.   21.739  9.15E-06  1.94E-04  2.78E-11  5.88E-10  0.00E+00  0.00E+00  9.15E-06  1.94E-04  2.02E-03  0.00000
    462.   21.645  9.94E-06  2.12E-04  8.12E-09  1.73E-07  0.00E+00  0.00E+00  9.95E-06  2.12E-04  2.04E-03  0.00063
    464.   21.552  1.04E-05  2.24E-04  3.33E-08  7.18E-07  0.00E+00  0.00E+00  1.04E-05  2.24E-04  2.07E-03  0.00259
    466.   21.459  1.01E-05  2.19E-04  2.61E-08  5.67E-07  0.00E+00  0.00E+00  1.01E-05  2.20E-04  2.09E-03  0.00203
    468.   21.368  9.54E-06  2.09E-04  2.44E-09  5.35E-08  0.00E+00  0.00E+00  9.55E-06  2.09E-04  2.10E-03  0.00019
    470.   21.277  9.35E-06  2.07E-04  4.75E-10  1.05E-08  0.00E+00  0.00E+00  9.35E-06  2.07E-04  2.12E-03  0.00004
    472.   21.186  8.32E-06  1.85E-04  1.10E-10  2.45E-09  0.00E+00  0.00E+00  8.32E-06  1.85E-04  2.14E-03  0.00001
    474.   21.097  8.94E-06  2.01E-04  1.66E-09  3.74E-08  0.00E+00  0.00E+00  8.95E-06  2.01E-04  2.16E-03  0.00013
    476.   21.008  1.02E-05  2.30E-04  3.15E-08  7.15E-07  0.00E+00  0.00E+00  1.02E-05  2.31E-04  2.18E-03  0.00242
    478.   20.921  1.06E-05  2.42E-04  1.30E-07  2.98E-06  0.00E+00  0.00E+00  1.07E-05  2.45E-04  2.20E-03  0.00999
    480.   20.833  1.05E-05  2.42E-04  1.13E-07  2.61E-06  0.00E+00  0.00E+00  1.06E-05  2.45E-04  2.22E-03  0.00869
    482.   20.747  9.72E-06  2.26E-04  2.20E-08  5.12E-07  0.00E+00  0.00E+00  9.74E-06  2.26E-04  2.24E-03  0.00169
    484.   20.661  9.01E-06  2.11E-04  2.13E-09  5.00E-08  0.00E+00  0.00E+00  9.01E-06  2.11E-04  2.26E-03  0.00016
    486.   20.576  9.88E-06  2.33E-04  4.52E-08  1.07E-06  0.00E+00  0.00E+00  9.93E-06  2.35E-04  2.28E-03  0.00344
    488.   20.492  1.07E-05  2.54E-04  2.10E-07  5.00E-06  0.00E+00  0.00E+00  1.09E-05  2.59E-04  2.30E-03  0.01599
    490.   20.408  1.05E-05  2.51E-04  1.68E-07  4.04E-06  0.00E+00  0.00E+00  1.06E-05  2.55E-04  2.32E-03  0.01281
    492.   20.325  9.69E-06  2.35E-04  2.87E-08  6.94E-07  0.00E+00  0.00E+00  9.72E-06  2.35E-04  2.34E-03  0.00218
    494.   20.243  1.02E-05  2.50E-04  1.99E-07  4.86E-06  0.00E+00  0.00E+00  1.04E-05  2.55E-04  2.36E-03  0.01508
    496.   20.161  1.07E-05  2.64E-04  6.05E-07  1.49E-05  0.00E+00  0.00E+00  1.13E-05  2.79E-04  2.38E-03  0.04580
    498.   20.080  1.07E-05  2.67E-04  6.24E-07  1.55E-05  0.00E+00  0.00E+00  1.14E-05  2.82E-04  2.41E-03  0.04719
    500.   20.000  1.03E-05  2.58E-04  2.27E-07  5.68E-06  0.00E+00  0.00E+00  1.06E-05  2.64E-04  2.43E-03  0.01718
  iv          505
1                                             RADIANCE(WATTS/CM2-STER-XXX)
0  FREQ   WAVLEN    PATH THERMAL      SURFACE EMISSION    SURFACE REFLECTED     TOTAL RADIANCE   INTEGRAL    TOTAL
  (CM-1) (MICRN)    (CM-1)   (MICRN)    (CM-1)   (MICRN)    (CM-1)   (MICRN)    (CM-1)   (MICRN)    (CM-1)   TRANS

    502.   19.920  9.30E-06  2.34E-04  1.41E-08  3.56E-07  0.00E+00  0.00E+00  9.31E-06  2.35E-04  2.45E-03  0.00107
    504.   19.841  9.66E-06  2.45E-04  4.39E-09  1.12E-07  0.00E+00  0.00E+00  9.66E-06  2.45E-04  2.47E-03  0.00033
    506.   19.763  9.42E-06  2.41E-04  4.52E-09  1.16E-07  0.00E+00  0.00E+00  9.42E-06  2.41E-04  2.49E-03  0.00034
    508.   19.685  9.78E-06  2.52E-04  6.14E-08  1.59E-06  0.00E+00  0.00E+00  9.85E-06  2.54E-04  2.50E-03  0.00462
    510.   19.608  1.04E-05  2.72E-04  9.76E-08  2.54E-06  0.00E+00  0.00E+00  1.05E-05  2.74E-04  2.53E-03  0.00734
    512.   19.531  1.05E-05  2.75E-04  2.65E-07  6.94E-06  0.00E+00  0.00E+00  1.07E-05  2.82E-04  2.55E-03  0.01988
    514.   19.455  1.05E-05  2.78E-04  2.61E-07  6.90E-06  0.00E+00  0.00E+00  1.08E-05  2.85E-04  2.57E-03  0.01960
    516.   19.380  9.50E-06  2.53E-04  2.79E-08  7.42E-07  0.00E+00  0.00E+00  9.53E-06  2.54E-04  2.59E-03  0.00209
    518.   19.305  8.86E-06  2.38E-04  3.57E-11  9.58E-10  0.00E+00  0.00E+00  8.86E-06  2.38E-04  2.61E-03  0.00000
    520.   19.231  9.52E-06  2.58E-04  6.13E-08  1.66E-06  0.00E+00  0.00E+00  9.59E-06  2.59E-04  2.63E-03  0.00458
    522.   19.157  1.06E-05  2.89E-04  2.87E-07  7.83E-06  0.00E+00  0.00E+00  1.09E-05  2.97E-04  2.65E-03  0.02150
    524.   19.084  1.02E-05  2.81E-04  1.99E-07  5.46E-06  0.00E+00  0.00E+00  1.04E-05  2.86E-04  2.67E-03  0.01485
    526.   19.011  9.53E-06  2.64E-04  9.00E-08  2.49E-06  0.00E+00  0.00E+00  9.62E-06  2.66E-04  2.69E-03  0.00672
    528.   18.939  1.03E-05  2.88E-04  6.12E-07  1.71E-05  0.00E+00  0.00E+00  1.10E-05  3.05E-04  2.71E-03  0.04570
    530.   18.868  1.02E-05  2.85E-04  1.65E-06  4.62E-05  0.00E+00  0.00E+00  1.18E-05  3.32E-04  2.73E-03  0.12279
    532.   18.797  9.98E-06  2.82E-04  1.91E-06  5.41E-05  0.00E+00  0.00E+00  1.19E-05  3.36E-04  2.76E-03  0.14242
    534.   18.727  1.03E-05  2.93E-04  1.05E-06  2.99E-05  0.00E+00  0.00E+00  1.13E-05  3.23E-04  2.78E-03  0.07817
    536.   18.657  1.01E-05  2.89E-04  4.97E-07  1.43E-05  0.00E+00  0.00E+00  1.06E-05  3.04E-04  2.80E-03  0.03702
    538.   18.587  1.00E-05  2.91E-04  1.27E-06  3.69E-05  0.00E+00  0.00E+00  1.13E-05  3.28E-04  2.82E-03  0.09478
    540.   18.519  1.00E-05  2.92E-04  1.41E-06  4.11E-05  0.00E+00  0.00E+00  1.14E-05  3.34E-04  2.85E-03  0.10492
    542.   18.450  1.03E-05  3.02E-04  9.90E-07  2.91E-05  0.00E+00  0.00E+00  1.13E-05  3.31E-04  2.87E-03  0.07366
    544.   18.382  9.87E-06  2.92E-04  6.59E-07  1.95E-05  0.00E+00  0.00E+00  1.05E-05  3.12E-04  2.89E-03  0.04898
    546.   18.315  9.36E-06  2.79E-04  6.01E-08  1.79E-06  0.00E+00  0.00E+00  9.42E-06  2.81E-04  2.91E-03  0.00447
    548.   18.248  9.93E-06  2.98E-04  2.50E-07  7.52E-06  0.00E+00  0.00E+00  1.02E-05  3.06E-04  2.93E-03  0.01860
    550.   18.182  1.02E-05  3.09E-04  4.68E-07  1.42E-05  0.00E+00  0.00E+00  1.07E-05  3.23E-04  2.95E-03  0.03479
    552.   18.116  1.02E-05  3.10E-04  1.18E-06  3.61E-05  0.00E+00  0.00E+00  1.14E-05  3.46E-04  2.97E-03  0.08796
    554.   18.051  1.00E-05  3.08E-04  1.15E-06  3.52E-05  0.00E+00  0.00E+00  1.12E-05  3.43E-04  2.99E-03  0.08502
    556.   17.986  9.89E-06  3.06E-04  1.33E-06  4.12E-05  0.00E+00  0.00E+00  1.12E-05  3.47E-04  3.02E-03  0.09897
    558.   17.921  9.59E-06  2.99E-04  2.31E-06  7.19E-05  0.00E+00  0.00E+00  1.19E-05  3.70E-04  3.04E-03  0.17125
    560.   17.857  9.09E-06  2.85E-04  3.06E-06  9.59E-05  0.00E+00  0.00E+00  1.21E-05  3.81E-04  3.07E-03  0.22681
    562.   17.794  9.32E-06  2.94E-04  2.21E-06  6.97E-05  0.00E+00  0.00E+00  1.15E-05  3.64E-04  3.09E-03  0.16367
    564.   17.730  1.00E-05  3.19E-04  1.15E-06  3.67E-05  0.00E+00  0.00E+00  1.12E-05  3.55E-04  3.11E-03  0.08553
    566.   17.668  9.93E-06  3.18E-04  8.08E-07  2.59E-05  0.00E+00  0.00E+00  1.07E-05  3.44E-04  3.13E-03  0.05996
    568.   17.606  9.46E-06  3.05E-04  9.57E-08  3.09E-06  0.00E+00  0.00E+00  9.56E-06  3.08E-04  3.15E-03  0.00710
    570.   17.544  9.77E-06  3.18E-04  1.60E-07  5.21E-06  0.00E+00  0.00E+00  9.93E-06  3.23E-04  3.17E-03  0.01190
    572.   17.483  1.01E-05  3.29E-04  1.07E-06  3.51E-05  0.00E+00  0.00E+00  1.11E-05  3.64E-04  3.19E-03  0.07970
    574.   17.422  9.74E-06  3.21E-04  1.39E-06  4.57E-05  0.00E+00  0.00E+00  1.11E-05  3.67E-04  3.22E-03  0.10282
    576.   17.361  9.59E-06  3.18E-04  4.29E-07  1.42E-05  0.00E+00  0.00E+00  1.00E-05  3.32E-04  3.24E-03  0.03183
    578.   17.301  9.80E-06  3.27E-04  5.40E-07  1.80E-05  0.00E+00  0.00E+00  1.03E-05  3.45E-04  3.26E-03  0.04005
    580.   17.241  9.56E-06  3.21E-04  3.73E-07  1.25E-05  0.00E+00  0.00E+00  9.93E-06  3.34E-04  3.28E-03  0.02768
    582.   17.182  9.39E-06  3.18E-04  2.59E-07  8.78E-06  0.00E+00  0.00E+00  9.65E-06  3.27E-04  3.30E-03  0.01924
    584.   17.123  9.42E-06  3.21E-04  3.97E-07  1.35E-05  0.00E+00  0.00E+00  9.81E-06  3.35E-04  3.32E-03  0.02944
    586.   17.065  8.98E-06  3.08E-04  5.97E-07  2.05E-05  0.00E+00  0.00E+00  9.58E-06  3.29E-04  3.33E-03  0.04432
    588.   17.007  8.74E-06  3.02E-04  9.01E-07  3.12E-05  0.00E+00  0.00E+00  9.64E-06  3.33E-04  3.35E-03  0.06695
    590.   16.949  8.52E-06  2.97E-04  3.62E-07  1.26E-05  0.00E+00  0.00E+00  8.89E-06  3.09E-04  3.37E-03  0.02688
    592.   16.892  8.20E-06  2.87E-04  2.70E-08  9.48E-07  0.00E+00  0.00E+00  8.23E-06  2.88E-04  3.39E-03  0.00201
    594.   16.835  7.90E-06  2.79E-04  1.67E-08  5.89E-07  0.00E+00  0.00E+00  7.92E-06  2.79E-04  3.40E-03  0.00124
    596.   16.779  7.35E-06  2.61E-04  3.96E-08  1.41E-06  0.00E+00  0.00E+00  7.39E-06  2.63E-04  3.42E-03  0.00294
    598.   16.722  7.54E-06  2.70E-04  1.14E-07  4.09E-06  0.00E+00  0.00E+00  7.66E-06  2.74E-04  3.43E-03  0.00852
    600.   16.667  8.04E-06  2.90E-04  1.30E-07  4.66E-06  0.00E+00  0.00E+00  8.17E-06  2.94E-04  3.45E-03  0.00965
  iv          605
1                                             RADIANCE(WATTS/CM2-STER-XXX)
0  FREQ   WAVLEN    PATH THERMAL      SURFACE EMISSION    SURFACE REFLECTED     TOTAL RADIANCE   INTEGRAL    TOTAL
  (CM-1) (MICRN)    (CM-1)   (MICRN)    (CM-1)   (MICRN)    (CM-1)   (MICRN)    (CM-1)   (MICRN)    (CM-1)   TRANS

    602.   16.611  7.70E-06  2.79E-04  1.22E-07  4.40E-06  0.00E+00  0.00E+00  7.82E-06  2.83E-04  3.47E-03  0.00905
    604.   16.556  7.37E-06  2.69E-04  9.00E-08  3.28E-06  0.00E+00  0.00E+00  7.46E-06  2.72E-04  3.48E-03  0.00671
    606.   16.502  7.15E-06  2.62E-04  7.15E-08  2.63E-06  0.00E+00  0.00E+00  7.22E-06  2.65E-04  3.50E-03  0.00533
    608.   16.447  7.04E-06  2.60E-04  7.42E-08  2.74E-06  0.00E+00  0.00E+00  7.12E-06  2.63E-04  3.51E-03  0.00554
    610.   16.393  7.27E-06  2.70E-04  9.62E-08  3.58E-06  0.00E+00  0.00E+00  7.36E-06  2.74E-04  3.52E-03  0.00718
    612.   16.340  7.30E-06  2.73E-04  9.99E-08  3.74E-06  0.00E+00  0.00E+00  7.40E-06  2.77E-04  3.54E-03  0.00746
    614.   16.287  6.78E-06  2.56E-04  3.55E-08  1.34E-06  0.00E+00  0.00E+00  6.82E-06  2.57E-04  3.55E-03  0.00265
    616.   16.234  6.08E-06  2.31E-04  5.44E-09  2.07E-07  0.00E+00  0.00E+00  6.08E-06  2.31E-04  3.56E-03  0.00041
    618.   16.181  5.97E-06  2.28E-04  2.19E-09  8.37E-08  0.00E+00  0.00E+00  5.97E-06  2.28E-04  3.58E-03  0.00016
    620.   16.129  6.48E-06  2.49E-04  8.82E-09  3.39E-07  0.00E+00  0.00E+00  6.48E-06  2.49E-04  3.59E-03  0.00066
    622.   16.077  6.42E-06  2.48E-04  1.45E-08  5.61E-07  0.00E+00  0.00E+00  6.44E-06  2.49E-04  3.60E-03  0.00109
    624.   16.026  6.06E-06  2.36E-04  8.61E-09  3.35E-07  0.00E+00  0.00E+00  6.07E-06  2.36E-04  3.61E-03  0.00065
    626.   15.974  5.77E-06  2.26E-04  2.06E-10  8.08E-09  0.00E+00  0.00E+00  5.77E-06  2.26E-04  3.63E-03  0.00002
    628.   15.924  5.54E-06  2.19E-04  9.99E-11  3.94E-09  0.00E+00  0.00E+00  5.54E-06  2.19E-04  3.64E-03  0.00001
    630.   15.873  5.40E-06  2.14E-04  6.09E-11  2.42E-09  0.00E+00  0.00E+00  5.40E-06  2.14E-04  3.65E-03  0.00000
    632.   15.823  5.29E-06  2.11E-04  5.58E-12  2.23E-10  0.00E+00  0.00E+00  5.29E-06  2.11E-04  3.66E-03  0.00000
    634.   15.773  5.21E-06  2.10E-04  7.01E-13  2.82E-11  0.00E+00  0.00E+00  5.21E-06  2.10E-04  3.67E-03  0.00000
    636.   15.723  5.16E-06  2.09E-04  1.20E-14  4.86E-13  0.00E+00  0.00E+00  5.16E-06  2.09E-04  3.68E-03  0.00000
    638.   15.674  5.14E-06  2.09E-04  3.40E-17  1.38E-15  0.00E+00  0.00E+00  5.14E-06  2.09E-04  3.69E-03  0.00000
    640.   15.625  5.14E-06  2.11E-04  2.22E-18  9.08E-17  0.00E+00  0.00E+00  5.14E-06  2.11E-04  3.70E-03  0.00000
    642.   15.576  5.17E-06  2.13E-04  7.64E-20  3.15E-18  0.00E+00  0.00E+00  5.17E-06  2.13E-04  3.71E-03  0.00000
    644.   15.528  5.22E-06  2.17E-04  5.91E-23  2.45E-21  0.00E+00  0.00E+00  5.22E-06  2.17E-04  3.72E-03  0.00000
    646.   15.480  5.30E-06  2.21E-04  6.19E-25  2.58E-23  0.00E+00  0.00E+00  5.30E-06  2.21E-04  3.73E-03  0.00000
    648.   15.432  5.60E-06  2.35E-04  8.30E-27  3.48E-25  0.00E+00  0.00E+00  5.60E-06  2.35E-04  3.74E-03  0.00000
    650.   15.385  5.63E-06  2.38E-04  5.53E-32  2.34E-30  0.00E+00  0.00E+00  5.63E-06  2.38E-04  3.75E-03  0.00000
    652.   15.337  5.38E-06  2.29E-04  1.72E-31  7.30E-30  0.00E+00  0.00E+00  5.38E-06  2.29E-04  3.76E-03  0.00000
    654.   15.291  5.29E-06  2.26E-04  1.59E-26  6.80E-25  0.00E+00  0.00E+00  5.29E-06  2.26E-04  3.78E-03  0.00000
    656.   15.244  5.28E-06  2.27E-04  1.59E-26  6.84E-25  0.00E+00  0.00E+00  5.28E-06  2.27E-04  3.79E-03  0.00000
    658.   15.198  5.31E-06  2.30E-04  1.28E-31  5.53E-30  0.00E+00  0.00E+00  5.31E-06  2.30E-04  3.80E-03  0.00000
    660.   15.152  5.28E-06  2.30E-04  1.18E-31  5.15E-30  0.00E+00  0.00E+00  5.28E-06  2.30E-04  3.81E-03  0.00000
    662.   15.106  5.47E-06  2.40E-04  9.23E-32  4.05E-30  0.00E+00  0.00E+00  5.47E-06  2.40E-04  3.82E-03  0.00000
    664.   15.060  5.48E-06  2.42E-04  0.00E+00  0.00E+00  0.00E+00  0.00E+00  5.48E-06  2.42E-04  3.83E-03  0.00000
    666.   15.015  6.00E-06  2.66E-04  0.00E+00  0.00E+00  0.00E+00  0.00E+00  6.00E-06  2.66E-04  3.84E-03  0.00000
    668.   14.970  7.02E-06  3.13E-04  0.00E+00  0.00E+00  0.00E+00  0.00E+00  7.02E-06  3.13E-04  3.85E-03  0.00000
    670.   14.925  6.12E-06  2.75E-04  0.00E+00  0.00E+00  0.00E+00  0.00E+00  6.12E-06  2.75E-04  3.87E-03  0.00000
    672.   14.881  5.33E-06  2.41E-04  3.74E-37  1.69E-35  0.00E+00  0.00E+00  5.33E-06  2.41E-04  3.88E-03  0.00000
    674.   14.837  5.22E-06  2.37E-04  1.42E-31  6.44E-30  0.00E+00  0.00E+00  5.22E-06  2.37E-04  3.89E-03  0.00000
    676.   14.793  5.15E-06  2.35E-04  4.26E-31  1.94E-29  0.00E+00  0.00E+00  5.15E-06  2.35E-04  3.90E-03  0.00000
    678.   14.749  5.19E-06  2.39E-04  1.42E-31  6.52E-30  0.00E+00  0.00E+00  5.19E-06  2.39E-04  3.91E-03  0.00000
    680.   14.706  5.16E-06  2.39E-04  2.04E-37  9.43E-36  0.00E+00  0.00E+00  5.16E-06  2.39E-04  3.92E-03  0.00000
    682.   14.663  5.11E-06  2.38E-04  4.55E-29  2.12E-27  0.00E+00  0.00E+00  5.11E-06  2.38E-04  3.93E-03  0.00000
    684.   14.620  4.99E-06  2.33E-04  1.55E-28  7.25E-27  0.00E+00  0.00E+00  4.99E-06  2.33E-04  3.94E-03  0.00000
    686.   14.577  4.96E-06  2.33E-04  1.01E-28  4.77E-27  0.00E+00  0.00E+00  4.96E-06  2.33E-04  3.95E-03  0.00000
    688.   14.535  4.93E-06  2.33E-04  5.26E-29  2.49E-27  0.00E+00  0.00E+00  4.93E-06  2.33E-04  3.96E-03  0.00000
    690.   14.493  4.86E-06  2.32E-04  7.15E-21  3.40E-19  0.00E+00  0.00E+00  4.86E-06  2.32E-04  3.97E-03  0.00000
    692.   14.451  4.69E-06  2.24E-04  4.17E-20  2.00E-18  0.00E+00  0.00E+00  4.69E-06  2.24E-04  3.98E-03  0.00000
    694.   14.409  4.64E-06  2.23E-04  9.28E-20  4.47E-18  0.00E+00  0.00E+00  4.64E-06  2.23E-04  3.99E-03  0.00000
    696.   14.368  4.59E-06  2.22E-04  3.86E-18  1.87E-16  0.00E+00  0.00E+00  4.59E-06  2.22E-04  4.00E-03  0.00000
    698.   14.327  4.55E-06  2.22E-04  2.86E-14  1.39E-12  0.00E+00  0.00E+00  4.55E-06  2.22E-04  4.01E-03  0.00000
    700.   14.286  4.51E-06  2.21E-04  8.88E-14  4.35E-12  0.00E+00  0.00E+00  4.51E-06  2.21E-04  4.01E-03  0.00000
  iv          705
1                                             RADIANCE(WATTS/CM2-STER-XXX)
0  FREQ   WAVLEN    PATH THERMAL      SURFACE EMISSION    SURFACE REFLECTED     TOTAL RADIANCE   INTEGRAL    TOTAL
  (CM-1) (MICRN)    (CM-1)   (MICRN)    (CM-1)   (MICRN)    (CM-1)   (MICRN)    (CM-1)   (MICRN)    (CM-1)   TRANS

    702.   14.245  4.54E-06  2.24E-04  4.12E-14  2.03E-12  0.00E+00  0.00E+00  4.54E-06  2.24E-04  4.02E-03  0.00000
    704.   14.205  4.65E-06  2.31E-04  1.98E-12  9.81E-11  0.00E+00  0.00E+00  4.65E-06  2.31E-04  4.03E-03  0.00000
    706.   14.164  4.81E-06  2.40E-04  2.32E-11  1.16E-09  0.00E+00  0.00E+00  4.81E-06  2.40E-04  4.04E-03  0.00000
    708.   14.124  4.93E-06  2.47E-04  3.26E-10  1.63E-08  0.00E+00  0.00E+00  4.93E-06  2.47E-04  4.05E-03  0.00003
    710.   14.085  5.04E-06  2.54E-04  2.20E-09  1.11E-07  0.00E+00  0.00E+00  5.04E-06  2.54E-04  4.06E-03  0.00018
    712.   14.045  5.26E-06  2.67E-04  5.61E-09  2.84E-07  0.00E+00  0.00E+00  5.26E-06  2.67E-04  4.07E-03  0.00045
    714.   14.006  5.46E-06  2.78E-04  1.03E-08  5.27E-07  0.00E+00  0.00E+00  5.47E-06  2.79E-04  4.08E-03  0.00082
    716.   13.966  5.51E-06  2.83E-04  1.70E-08  8.71E-07  0.00E+00  0.00E+00  5.53E-06  2.83E-04  4.10E-03  0.00136
    718.   13.928  5.05E-06  2.61E-04  7.53E-09  3.88E-07  0.00E+00  0.00E+00  5.06E-06  2.61E-04  4.11E-03  0.00060
    720.   13.889  4.76E-06  2.47E-04  2.11E-10  1.09E-08  0.00E+00  0.00E+00  4.76E-06  2.47E-04  4.11E-03  0.00002
    722.   13.850  5.52E-06  2.87E-04  6.19E-08  3.23E-06  0.00E+00  0.00E+00  5.58E-06  2.91E-04  4.13E-03  0.00498
    724.   13.812  6.16E-06  3.23E-04  2.57E-07  1.35E-05  0.00E+00  0.00E+00  6.41E-06  3.36E-04  4.14E-03  0.02073
    726.   13.774  6.41E-06  3.38E-04  4.89E-07  2.58E-05  0.00E+00  0.00E+00  6.90E-06  3.64E-04  4.15E-03  0.03944
    728.   13.736  6.30E-06  3.34E-04  2.98E-07  1.58E-05  0.00E+00  0.00E+00  6.60E-06  3.50E-04  4.17E-03  0.02404
    730.   13.699  5.98E-06  3.19E-04  1.27E-07  6.77E-06  0.00E+00  0.00E+00  6.11E-06  3.26E-04  4.18E-03  0.01027
    732.   13.661  5.94E-06  3.18E-04  1.38E-07  7.39E-06  0.00E+00  0.00E+00  6.08E-06  3.26E-04  4.19E-03  0.01119
    734.   13.624  6.01E-06  3.24E-04  1.76E-07  9.51E-06  0.00E+00  0.00E+00  6.19E-06  3.33E-04  4.20E-03  0.01434
    736.   13.587  6.02E-06  3.26E-04  1.88E-07  1.02E-05  0.00E+00  0.00E+00  6.21E-06  3.36E-04  4.21E-03  0.01532
    738.   13.550  6.00E-06  3.27E-04  1.52E-07  8.27E-06  0.00E+00  0.00E+00  6.15E-06  3.35E-04  4.23E-03  0.01239
    740.   13.514  5.73E-06  3.14E-04  7.77E-08  4.25E-06  0.00E+00  0.00E+00  5.81E-06  3.18E-04  4.24E-03  0.00635
    742.   13.477  5.77E-06  3.18E-04  2.82E-07  1.55E-05  0.00E+00  0.00E+00  6.05E-06  3.33E-04  4.25E-03  0.02311
    744.   13.441  6.46E-06  3.58E-04  6.89E-07  3.81E-05  0.00E+00  0.00E+00  7.15E-06  3.96E-04  4.27E-03  0.05661
    746.   13.405  6.57E-06  3.66E-04  1.11E-06  6.20E-05  0.00E+00  0.00E+00  7.68E-06  4.28E-04  4.28E-03  0.09169
    748.   13.369  6.53E-06  3.65E-04  1.41E-06  7.88E-05  0.00E+00  0.00E+00  7.94E-06  4.44E-04  4.30E-03  0.11619
    750.   13.333  6.42E-06  3.61E-04  1.78E-06  1.00E-04  0.00E+00  0.00E+00  8.20E-06  4.61E-04  4.31E-03  0.14719
    752.   13.298  6.47E-06  3.66E-04  2.01E-06  1.14E-04  0.00E+00  0.00E+00  8.48E-06  4.79E-04  4.33E-03  0.16641
    754.   13.263  6.77E-06  3.85E-04  1.77E-06  1.01E-04  0.00E+00  0.00E+00  8.54E-06  4.85E-04  4.35E-03  0.14712
    756.   13.228  6.54E-06  3.74E-04  2.21E-06  1.26E-04  0.00E+00  0.00E+00  8.75E-06  5.00E-04  4.36E-03  0.18384
    758.   13.193  5.56E-06  3.19E-04  3.87E-06  2.22E-04  0.00E+00  0.00E+00  9.43E-06  5.42E-04  4.38E-03  0.32305
    760.   13.158  4.93E-06  2.85E-04  5.13E-06  2.97E-04  0.00E+00  0.00E+00  1.01E-05  5.81E-04  4.40E-03  0.42926
    762.   13.123  4.45E-06  2.59E-04  5.92E-06  3.44E-04  0.00E+00  0.00E+00  1.04E-05  6.02E-04  4.42E-03  0.49615
    764.   13.089  3.95E-06  2.31E-04  6.66E-06  3.89E-04  0.00E+00  0.00E+00  1.06E-05  6.19E-04  4.45E-03  0.55916
    766.   13.055  3.78E-06  2.22E-04  7.00E-06  4.11E-04  0.00E+00  0.00E+00  1.08E-05  6.33E-04  4.47E-03  0.58935
    768.   13.021  4.13E-06  2.44E-04  6.60E-06  3.89E-04  0.00E+00  0.00E+00  1.07E-05  6.33E-04  4.49E-03  0.55690
    770.   12.987  4.18E-06  2.48E-04  6.55E-06  3.88E-04  0.00E+00  0.00E+00  1.07E-05  6.36E-04  4.51E-03  0.55407
    772.   12.953  3.10E-06  1.85E-04  7.95E-06  4.74E-04  0.00E+00  0.00E+00  1.10E-05  6.58E-04  4.53E-03  0.67377
    774.   12.920  3.17E-06  1.90E-04  7.87E-06  4.72E-04  0.00E+00  0.00E+00  1.10E-05  6.61E-04  4.55E-03  0.66897
    776.   12.887  4.44E-06  2.67E-04  6.20E-06  3.74E-04  0.00E+00  0.00E+00  1.06E-05  6.41E-04  4.58E-03  0.52842
    778.   12.853  4.01E-06  2.43E-04  6.74E-06  4.08E-04  0.00E+00  0.00E+00  1.07E-05  6.50E-04  4.60E-03  0.57546
    780.   12.821  2.84E-06  1.73E-04  8.23E-06  5.01E-04  0.00E+00  0.00E+00  1.11E-05  6.74E-04  4.62E-03  0.70476
    782.   12.788  2.82E-06  1.72E-04  8.18E-06  5.00E-04  0.00E+00  0.00E+00  1.10E-05  6.72E-04  4.64E-03  0.70155
    784.   12.755  4.01E-06  2.47E-04  6.58E-06  4.04E-04  0.00E+00  0.00E+00  1.06E-05  6.51E-04  4.66E-03  0.56583
    786.   12.723  2.90E-06  1.79E-04  8.06E-06  4.98E-04  0.00E+00  0.00E+00  1.10E-05  6.78E-04  4.68E-03  0.69547
    788.   12.690  1.91E-06  1.18E-04  9.32E-06  5.79E-04  0.00E+00  0.00E+00  1.12E-05  6.97E-04  4.71E-03  0.80579
    790.   12.658  2.67E-06  1.66E-04  8.02E-06  5.00E-04  0.00E+00  0.00E+00  1.07E-05  6.67E-04  4.73E-03  0.69485
    792.   12.626  4.35E-06  2.73E-04  5.38E-06  3.38E-04  0.00E+00  0.00E+00  9.73E-06  6.10E-04  4.75E-03  0.46787
    794.   12.594  4.68E-06  2.95E-04  5.44E-06  3.43E-04  0.00E+00  0.00E+00  1.01E-05  6.38E-04  4.77E-03  0.47395
    796.   12.563  4.65E-06  2.94E-04  5.59E-06  3.54E-04  0.00E+00  0.00E+00  1.02E-05  6.48E-04  4.79E-03  0.48819
    798.   12.531  4.88E-06  3.11E-04  5.18E-06  3.30E-04  0.00E+00  0.00E+00  1.01E-05  6.41E-04  4.81E-03  0.45371
    800.   12.500  3.66E-06  2.34E-04  6.73E-06  4.31E-04  0.00E+00  0.00E+00  1.04E-05  6.65E-04  4.83E-03  0.59125
  iv          805
1                                             RADIANCE(WATTS/CM2-STER-XXX)
0  FREQ   WAVLEN    PATH THERMAL      SURFACE EMISSION    SURFACE REFLECTED     TOTAL RADIANCE   INTEGRAL    TOTAL
  (CM-1) (MICRN)    (CM-1)   (MICRN)    (CM-1)   (MICRN)    (CM-1)   (MICRN)    (CM-1)   (MICRN)    (CM-1)   TRANS

    802.   12.469  2.92E-06  1.88E-04  7.80E-06  5.02E-04  0.00E+00  0.00E+00  1.07E-05  6.90E-04  4.85E-03  0.68647
    804.   12.438  3.49E-06  2.26E-04  7.05E-06  4.55E-04  0.00E+00  0.00E+00  1.05E-05  6.81E-04  4.87E-03  0.62206
    806.   12.407  2.81E-06  1.82E-04  7.88E-06  5.12E-04  0.00E+00  0.00E+00  1.07E-05  6.94E-04  4.89E-03  0.69757
    808.   12.376  3.04E-06  1.98E-04  7.56E-06  4.93E-04  0.00E+00  0.00E+00  1.06E-05  6.92E-04  4.91E-03  0.67081
    810.   12.346  2.16E-06  1.42E-04  8.63E-06  5.66E-04  0.00E+00  0.00E+00  1.08E-05  7.08E-04  4.94E-03  0.76777
    812.   12.315  1.96E-06  1.29E-04  8.86E-06  5.84E-04  0.00E+00  0.00E+00  1.08E-05  7.14E-04  4.96E-03  0.79104
    814.   12.285  2.93E-06  1.94E-04  7.67E-06  5.08E-04  0.00E+00  0.00E+00  1.06E-05  7.03E-04  4.98E-03  0.68662
    816.   12.255  2.38E-06  1.58E-04  8.32E-06  5.54E-04  0.00E+00  0.00E+00  1.07E-05  7.12E-04  5.00E-03  0.74699
    818.   12.225  1.47E-06  9.86E-05  9.40E-06  6.29E-04  0.00E+00  0.00E+00  1.09E-05  7.27E-04  5.02E-03  0.84545
    820.   12.195  1.39E-06  9.32E-05  9.48E-06  6.37E-04  0.00E+00  0.00E+00  1.09E-05  7.30E-04  5.04E-03  0.85515
    822.   12.165  1.35E-06  9.13E-05  9.50E-06  6.42E-04  0.00E+00  0.00E+00  1.08E-05  7.33E-04  5.07E-03  0.85924
    824.   12.136  1.61E-06  1.09E-04  9.15E-06  6.21E-04  0.00E+00  0.00E+00  1.08E-05  7.30E-04  5.09E-03  0.82988
    826.   12.107  2.08E-06  1.42E-04  8.55E-06  5.83E-04  0.00E+00  0.00E+00  1.06E-05  7.25E-04  5.11E-03  0.77760
    828.   12.077  2.39E-06  1.64E-04  8.14E-06  5.58E-04  0.00E+00  0.00E+00  1.05E-05  7.22E-04  5.13E-03  0.74288
    830.   12.048  1.55E-06  1.07E-04  9.13E-06  6.29E-04  0.00E+00  0.00E+00  1.07E-05  7.36E-04  5.15E-03  0.83604
    832.   12.019  1.18E-06  8.19E-05  9.55E-06  6.61E-04  0.00E+00  0.00E+00  1.07E-05  7.43E-04  5.17E-03  0.87667
    834.   11.990  1.23E-06  8.53E-05  9.47E-06  6.59E-04  0.00E+00  0.00E+00  1.07E-05  7.44E-04  5.19E-03  0.87166
    836.   11.962  1.35E-06  9.41E-05  9.30E-06  6.50E-04  0.00E+00  0.00E+00  1.06E-05  7.44E-04  5.21E-03  0.85842
    838.   11.933  1.59E-06  1.11E-04  8.96E-06  6.29E-04  0.00E+00  0.00E+00  1.05E-05  7.41E-04  5.24E-03  0.82973
    840.   11.905  2.26E-06  1.60E-04  8.10E-06  5.71E-04  0.00E+00  0.00E+00  1.04E-05  7.31E-04  5.26E-03  0.75188
    842.   11.876  1.74E-06  1.24E-04  8.69E-06  6.16E-04  0.00E+00  0.00E+00  1.04E-05  7.39E-04  5.28E-03  0.80920
    844.   11.848  1.22E-06  8.72E-05  9.27E-06  6.60E-04  0.00E+00  0.00E+00  1.05E-05  7.48E-04  5.30E-03  0.86613
    846.   11.820  1.16E-06  8.27E-05  9.31E-06  6.67E-04  0.00E+00  0.00E+00  1.05E-05  7.49E-04  5.32E-03  0.87273
    848.   11.792  1.45E-06  1.04E-04  8.91E-06  6.41E-04  0.00E+00  0.00E+00  1.04E-05  7.45E-04  5.34E-03  0.83720
    850.   11.765  2.40E-06  1.74E-04  7.67E-06  5.54E-04  0.00E+00  0.00E+00  1.01E-05  7.28E-04  5.36E-03  0.72305
    852.   11.737  3.28E-06  2.38E-04  6.56E-06  4.76E-04  0.00E+00  0.00E+00  9.84E-06  7.14E-04  5.38E-03  0.62059
    854.   11.710  2.76E-06  2.01E-04  7.24E-06  5.28E-04  0.00E+00  0.00E+00  1.00E-05  7.29E-04  5.40E-03  0.68674
    856.   11.682  1.65E-06  1.21E-04  8.57E-06  6.28E-04  0.00E+00  0.00E+00  1.02E-05  7.49E-04  5.42E-03  0.81595
    858.   11.655  1.11E-06  8.16E-05  9.22E-06  6.78E-04  0.00E+00  0.00E+00  1.03E-05  7.60E-04  5.44E-03  0.87952
    860.   11.628  1.11E-06  8.21E-05  9.19E-06  6.79E-04  0.00E+00  0.00E+00  1.03E-05  7.61E-04  5.46E-03  0.87940
    862.   11.601  9.91E-07  7.36E-05  9.29E-06  6.90E-04  0.00E+00  0.00E+00  1.03E-05  7.64E-04  5.48E-03  0.89214
    864.   11.574  1.41E-06  1.05E-04  8.75E-06  6.53E-04  0.00E+00  0.00E+00  1.02E-05  7.58E-04  5.50E-03  0.84262
    866.   11.547  1.41E-06  1.06E-04  8.71E-06  6.54E-04  0.00E+00  0.00E+00  1.01E-05  7.60E-04  5.52E-03  0.84226
    868.   11.521  9.48E-07  7.14E-05  9.24E-06  6.96E-04  0.00E+00  0.00E+00  1.02E-05  7.68E-04  5.54E-03  0.89573
    870.   11.494  1.34E-06  1.01E-04  8.71E-06  6.59E-04  0.00E+00  0.00E+00  1.00E-05  7.60E-04  5.56E-03  0.84697
    872.   11.468  1.36E-06  1.04E-04  8.64E-06  6.57E-04  0.00E+00  0.00E+00  1.00E-05  7.61E-04  5.58E-03  0.84343
    874.   11.442  9.31E-07  7.11E-05  9.16E-06  6.99E-04  0.00E+00  0.00E+00  1.01E-05  7.71E-04  5.60E-03  0.89620
    876.   11.416  9.31E-07  7.15E-05  9.12E-06  7.00E-04  0.00E+00  0.00E+00  1.01E-05  7.71E-04  5.62E-03  0.89562
    878.   11.390  1.25E-06  9.61E-05  8.70E-06  6.71E-04  0.00E+00  0.00E+00  9.95E-06  7.67E-04  5.64E-03  0.85730
    880.   11.364  1.34E-06  1.03E-04  8.56E-06  6.63E-04  0.00E+00  0.00E+00  9.89E-06  7.66E-04  5.66E-03  0.84568
    882.   11.338  1.26E-06  9.77E-05  8.62E-06  6.71E-04  0.00E+00  0.00E+00  9.88E-06  7.69E-04  5.68E-03  0.85509
    884.   11.312  1.42E-06  1.11E-04  8.39E-06  6.55E-04  0.00E+00  0.00E+00  9.81E-06  7.66E-04  5.70E-03  0.83438
    886.   11.287  1.48E-06  1.16E-04  8.24E-06  6.47E-04  0.00E+00  0.00E+00  9.72E-06  7.63E-04  5.72E-03  0.82250
    888.   11.261  1.59E-06  1.25E-04  8.09E-06  6.38E-04  0.00E+00  0.00E+00  9.68E-06  7.63E-04  5.74E-03  0.80992
    890.   11.236  1.28E-06  1.01E-04  8.47E-06  6.71E-04  0.00E+00  0.00E+00  9.75E-06  7.72E-04  5.76E-03  0.85091
    892.   11.211  9.71E-07  7.73E-05  8.80E-06  7.00E-04  0.00E+00  0.00E+00  9.77E-06  7.77E-04  5.78E-03  0.88722
    894.   11.186  8.13E-07  6.50E-05  8.95E-06  7.16E-04  0.00E+00  0.00E+00  9.77E-06  7.81E-04  5.80E-03  0.90558
    896.   11.161  8.58E-07  6.89E-05  8.87E-06  7.12E-04  0.00E+00  0.00E+00  9.73E-06  7.81E-04  5.82E-03  0.90007
    898.   11.136  8.98E-07  7.24E-05  8.79E-06  7.09E-04  0.00E+00  0.00E+00  9.69E-06  7.81E-04  5.84E-03  0.89500
    900.   11.111  8.13E-07  6.59E-05  8.85E-06  7.17E-04  0.00E+00  0.00E+00  9.67E-06  7.83E-04  5.86E-03  0.90459
  iv          905
1                                             RADIANCE(WATTS/CM2-STER-XXX)
0  FREQ   WAVLEN    PATH THERMAL      SURFACE EMISSION    SURFACE REFLECTED     TOTAL RADIANCE   INTEGRAL    TOTAL
  (CM-1) (MICRN)    (CM-1)   (MICRN)    (CM-1)   (MICRN)    (CM-1)   (MICRN)    (CM-1)   (MICRN)    (CM-1)   TRANS

    902.   11.086  7.88E-07  6.41E-05  8.85E-06  7.20E-04  0.00E+00  0.00E+00  9.64E-06  7.84E-04  5.88E-03  0.90712
    904.   11.062  8.71E-07  7.12E-05  8.72E-06  7.12E-04  0.00E+00  0.00E+00  9.59E-06  7.83E-04  5.90E-03  0.89656
    906.   11.038  1.06E-06  8.73E-05  8.45E-06  6.94E-04  0.00E+00  0.00E+00  9.52E-06  7.81E-04  5.92E-03  0.87268
    908.   11.013  1.44E-06  1.19E-04  7.93E-06  6.54E-04  0.00E+00  0.00E+00  9.37E-06  7.73E-04  5.93E-03  0.82103
    910.   10.989  1.36E-06  1.13E-04  7.99E-06  6.61E-04  0.00E+00  0.00E+00  9.35E-06  7.74E-04  5.95E-03  0.83030
    912.   10.965  8.87E-07  7.38E-05  8.54E-06  7.11E-04  0.00E+00  0.00E+00  9.43E-06  7.85E-04  5.97E-03  0.89129
    914.   10.941  9.19E-07  7.68E-05  8.47E-06  7.07E-04  0.00E+00  0.00E+00  9.39E-06  7.84E-04  5.99E-03  0.88646
    916.   10.917  8.80E-07  7.38E-05  8.48E-06  7.11E-04  0.00E+00  0.00E+00  9.36E-06  7.85E-04  6.01E-03  0.89049
    918.   10.893  9.41E-07  7.93E-05  8.37E-06  7.05E-04  0.00E+00  0.00E+00  9.31E-06  7.85E-04  6.03E-03  0.88231
    920.   10.870  1.08E-06  9.16E-05  8.15E-06  6.90E-04  0.00E+00  0.00E+00  9.24E-06  7.82E-04  6.05E-03  0.86245
    922.   10.846  1.41E-06  1.20E-04  7.70E-06  6.54E-04  0.00E+00  0.00E+00  9.11E-06  7.74E-04  6.06E-03  0.81698
    924.   10.823  1.33E-06  1.14E-04  7.76E-06  6.62E-04  0.00E+00  0.00E+00  9.09E-06  7.76E-04  6.08E-03  0.82642
    926.   10.799  1.12E-06  9.58E-05  7.99E-06  6.85E-04  0.00E+00  0.00E+00  9.11E-06  7.81E-04  6.10E-03  0.85456
    928.   10.776  8.59E-07  7.40E-05  8.28E-06  7.13E-04  0.00E+00  0.00E+00  9.14E-06  7.87E-04  6.12E-03  0.88863
    930.   10.753  8.75E-07  7.57E-05  8.22E-06  7.11E-04  0.00E+00  0.00E+00  9.10E-06  7.87E-04  6.14E-03  0.88559
    932.   10.730  8.44E-07  7.34E-05  8.23E-06  7.15E-04  0.00E+00  0.00E+00  9.07E-06  7.88E-04  6.16E-03  0.88901
    934.   10.707  8.46E-07  7.38E-05  8.19E-06  7.15E-04  0.00E+00  0.00E+00  9.04E-06  7.88E-04  6.17E-03  0.88851
    936.   10.684  8.66E-07  7.59E-05  8.13E-06  7.13E-04  0.00E+00  0.00E+00  9.00E-06  7.88E-04  6.19E-03  0.88536
    938.   10.661  8.83E-07  7.77E-05  8.08E-06  7.10E-04  0.00E+00  0.00E+00  8.96E-06  7.88E-04  6.21E-03  0.88221
    940.   10.638  1.00E-06  8.84E-05  7.88E-06  6.96E-04  0.00E+00  0.00E+00  8.88E-06  7.84E-04  6.23E-03  0.86368
    942.   10.616  1.08E-06  9.56E-05  7.72E-06  6.85E-04  0.00E+00  0.00E+00  8.80E-06  7.81E-04  6.24E-03  0.85012
    944.   10.593  1.05E-06  9.40E-05  7.73E-06  6.88E-04  0.00E+00  0.00E+00  8.78E-06  7.82E-04  6.26E-03  0.85339
    946.   10.571  1.23E-06  1.10E-04  7.46E-06  6.68E-04  0.00E+00  0.00E+00  8.69E-06  7.78E-04  6.28E-03  0.82691
    948.   10.549  1.53E-06  1.38E-04  7.01E-06  6.30E-04  0.00E+00  0.00E+00  8.54E-06  7.67E-04  6.30E-03  0.77977
    950.   10.526  1.13E-06  1.02E-04  7.51E-06  6.78E-04  0.00E+00  0.00E+00  8.64E-06  7.79E-04  6.31E-03  0.83871
    952.   10.504  1.01E-06  9.14E-05  7.66E-06  6.94E-04  0.00E+00  0.00E+00  8.66E-06  7.85E-04  6.33E-03  0.85820
    954.   10.482  1.19E-06  1.08E-04  7.40E-06  6.73E-04  0.00E+00  0.00E+00  8.58E-06  7.81E-04  6.35E-03  0.83217
    956.   10.460  1.08E-06  9.89E-05  7.49E-06  6.85E-04  0.00E+00  0.00E+00  8.57E-06  7.84E-04  6.37E-03  0.84613
    958.   10.438  8.39E-07  7.70E-05  7.79E-06  7.15E-04  0.00E+00  0.00E+00  8.63E-06  7.92E-04  6.38E-03  0.88302
    960.   10.417  7.64E-07  7.04E-05  7.88E-06  7.26E-04  0.00E+00  0.00E+00  8.64E-06  7.96E-04  6.40E-03  0.89645
    962.   10.395  6.67E-07  6.18E-05  7.95E-06  7.36E-04  0.00E+00  0.00E+00  8.62E-06  7.98E-04  6.42E-03  0.90873
    964.   10.373  7.41E-07  6.89E-05  7.80E-06  7.24E-04  0.00E+00  0.00E+00  8.54E-06  7.93E-04  6.43E-03  0.89386
    966.   10.352  9.49E-07  8.85E-05  7.48E-06  6.98E-04  0.00E+00  0.00E+00  8.43E-06  7.87E-04  6.45E-03  0.86102
    968.   10.331  9.77E-07  9.16E-05  7.39E-06  6.92E-04  0.00E+00  0.00E+00  8.36E-06  7.84E-04  6.47E-03  0.85355
    970.   10.309  1.09E-06  1.02E-04  7.21E-06  6.78E-04  0.00E+00  0.00E+00  8.29E-06  7.80E-04  6.48E-03  0.83571
    972.   10.288  1.36E-06  1.29E-04  6.81E-06  6.43E-04  0.00E+00  0.00E+00  8.17E-06  7.72E-04  6.50E-03  0.79264
    974.   10.267  1.31E-06  1.24E-04  6.86E-06  6.50E-04  0.00E+00  0.00E+00  8.16E-06  7.74E-04  6.52E-03  0.80146
    976.   10.246  1.38E-06  1.31E-04  6.71E-06  6.39E-04  0.00E+00  0.00E+00  8.08E-06  7.70E-04  6.53E-03  0.78717
    978.   10.225  1.08E-06  1.03E-04  7.06E-06  6.75E-04  0.00E+00  0.00E+00  8.14E-06  7.78E-04  6.55E-03  0.83196
    980.   10.204  8.51E-07  8.18E-05  7.31E-06  7.02E-04  0.00E+00  0.00E+00  8.16E-06  7.84E-04  6.57E-03  0.86450
    982.   10.183  8.67E-07  8.36E-05  7.24E-06  6.98E-04  0.00E+00  0.00E+00  8.11E-06  7.82E-04  6.58E-03  0.85978
    984.   10.163  7.89E-07  7.64E-05  7.30E-06  7.07E-04  0.00E+00  0.00E+00  8.09E-06  7.84E-04  6.60E-03  0.87062
    986.   10.142  6.48E-07  6.30E-05  7.42E-06  7.21E-04  0.00E+00  0.00E+00  8.07E-06  7.84E-04  6.61E-03  0.88792
    988.   10.121  6.24E-07  6.09E-05  7.36E-06  7.19E-04  0.00E+00  0.00E+00  7.99E-06  7.80E-04  6.63E-03  0.88451
    990.   10.101  6.27E-07  6.15E-05  7.27E-06  7.13E-04  0.00E+00  0.00E+00  7.90E-06  7.74E-04  6.65E-03  0.87685
    992.   10.081  6.21E-07  6.11E-05  7.15E-06  7.04E-04  0.00E+00  0.00E+00  7.77E-06  7.65E-04  6.66E-03  0.86622
    994.   10.060  6.34E-07  6.26E-05  7.02E-06  6.93E-04  0.00E+00  0.00E+00  7.65E-06  7.56E-04  6.68E-03  0.85322
    996.   10.040  6.73E-07  6.68E-05  6.81E-06  6.76E-04  0.00E+00  0.00E+00  7.49E-06  7.43E-04  6.69E-03  0.83151
    998.   10.020  8.41E-07  8.37E-05  6.43E-06  6.40E-04  0.00E+00  0.00E+00  7.27E-06  7.24E-04  6.71E-03  0.78757
   1000.   10.000  9.74E-07  9.74E-05  6.09E-06  6.09E-04  0.00E+00  0.00E+00  7.07E-06  7.07E-04  6.72E-03  0.74977
  iv         1005
1                                             RADIANCE(WATTS/CM2-STER-XXX)
0  FREQ   WAVLEN    PATH THERMAL      SURFACE EMISSION    SURFACE REFLECTED     TOTAL RADIANCE   INTEGRAL    TOTAL
  (CM-1) (MICRN)    (CM-1)   (MICRN)    (CM-1)   (MICRN)    (CM-1)   (MICRN)    (CM-1)   (MICRN)    (CM-1)   TRANS

   1002.    9.980  9.33E-07  9.37E-05  5.91E-06  5.94E-04  0.00E+00  0.00E+00  6.85E-06  6.87E-04  6.73E-03  0.73035
   1004.    9.960  1.02E-06  1.03E-04  5.61E-06  5.65E-04  0.00E+00  0.00E+00  6.62E-06  6.68E-04  6.75E-03  0.69535
   1006.    9.940  1.03E-06  1.04E-04  5.31E-06  5.38E-04  0.00E+00  0.00E+00  6.34E-06  6.42E-04  6.76E-03  0.66153
   1008.    9.921  1.08E-06  1.10E-04  5.09E-06  5.18E-04  0.00E+00  0.00E+00  6.18E-06  6.27E-04  6.77E-03  0.63694
   1010.    9.901  1.34E-06  1.36E-04  4.56E-06  4.65E-04  0.00E+00  0.00E+00  5.89E-06  6.01E-04  6.78E-03  0.57196
   1012.    9.881  1.40E-06  1.44E-04  4.19E-06  4.29E-04  0.00E+00  0.00E+00  5.59E-06  5.73E-04  6.80E-03  0.52810
   1014.    9.862  1.47E-06  1.52E-04  3.89E-06  4.00E-04  0.00E+00  0.00E+00  5.36E-06  5.52E-04  6.81E-03  0.49244
   1016.    9.843  1.44E-06  1.48E-04  3.77E-06  3.90E-04  0.00E+00  0.00E+00  5.21E-06  5.38E-04  6.82E-03  0.47965
   1018.    9.823  1.51E-06  1.56E-04  3.42E-06  3.54E-04  0.00E+00  0.00E+00  4.93E-06  5.11E-04  6.83E-03  0.43636
   1020.    9.804  1.43E-06  1.49E-04  3.31E-06  3.44E-04  0.00E+00  0.00E+00  4.74E-06  4.93E-04  6.84E-03  0.42384
   1022.    9.785  1.42E-06  1.48E-04  3.16E-06  3.30E-04  0.00E+00  0.00E+00  4.58E-06  4.78E-04  6.85E-03  0.40664
   1024.    9.766  1.42E-06  1.49E-04  3.06E-06  3.21E-04  0.00E+00  0.00E+00  4.48E-06  4.69E-04  6.85E-03  0.39526
   1026.    9.747  1.44E-06  1.51E-04  3.02E-06  3.18E-04  0.00E+00  0.00E+00  4.46E-06  4.70E-04  6.86E-03  0.39221
   1028.    9.728  1.64E-06  1.73E-04  2.70E-06  2.85E-04  0.00E+00  0.00E+00  4.34E-06  4.58E-04  6.87E-03  0.35132
   1030.    9.709  1.64E-06  1.74E-04  2.59E-06  2.75E-04  0.00E+00  0.00E+00  4.24E-06  4.49E-04  6.88E-03  0.33960
   1032.    9.690  1.48E-06  1.58E-04  2.81E-06  3.00E-04  0.00E+00  0.00E+00  4.29E-06  4.57E-04  6.89E-03  0.36992
   1034.    9.671  1.44E-06  1.54E-04  2.78E-06  2.97E-04  0.00E+00  0.00E+00  4.22E-06  4.51E-04  6.90E-03  0.36703
   1036.    9.653  1.49E-06  1.60E-04  2.56E-06  2.74E-04  0.00E+00  0.00E+00  4.05E-06  4.34E-04  6.91E-03  0.33854
   1038.    9.634  1.59E-06  1.72E-04  2.23E-06  2.40E-04  0.00E+00  0.00E+00  3.83E-06  4.12E-04  6.91E-03  0.29693
   1040.    9.615  1.59E-06  1.72E-04  2.16E-06  2.33E-04  0.00E+00  0.00E+00  3.75E-06  4.06E-04  6.92E-03  0.28852
   1042.    9.597  1.27E-06  1.38E-04  3.61E-06  3.92E-04  0.00E+00  0.00E+00  4.89E-06  5.30E-04  6.93E-03  0.48508
   1044.    9.579  1.05E-06  1.14E-04  4.60E-06  5.01E-04  0.00E+00  0.00E+00  5.64E-06  6.15E-04  6.94E-03  0.61966
   1046.    9.560  1.25E-06  1.37E-04  3.42E-06  3.74E-04  0.00E+00  0.00E+00  4.67E-06  5.11E-04  6.95E-03  0.46273
   1048.    9.542  1.54E-06  1.69E-04  2.32E-06  2.54E-04  0.00E+00  0.00E+00  3.85E-06  4.23E-04  6.96E-03  0.31473
   1050.    9.524  1.69E-06  1.86E-04  1.85E-06  2.04E-04  0.00E+00  0.00E+00  3.54E-06  3.90E-04  6.97E-03  0.25279
   1052.    9.506  1.66E-06  1.84E-04  1.75E-06  1.94E-04  0.00E+00  0.00E+00  3.41E-06  3.78E-04  6.97E-03  0.23996
   1054.    9.488  1.65E-06  1.83E-04  1.68E-06  1.87E-04  0.00E+00  0.00E+00  3.33E-06  3.70E-04  6.98E-03  0.23130
   1056.    9.470  1.68E-06  1.87E-04  1.65E-06  1.84E-04  0.00E+00  0.00E+00  3.33E-06  3.72E-04  6.99E-03  0.22862
   1058.    9.452  1.60E-06  1.79E-04  2.01E-06  2.25E-04  0.00E+00  0.00E+00  3.61E-06  4.04E-04  6.99E-03  0.27953
   1060.    9.434  1.53E-06  1.71E-04  2.43E-06  2.73E-04  0.00E+00  0.00E+00  3.95E-06  4.44E-04  7.00E-03  0.33900
   1062.    9.416  1.39E-06  1.57E-04  2.94E-06  3.32E-04  0.00E+00  0.00E+00  4.33E-06  4.89E-04  7.01E-03  0.41206
   1064.    9.398  1.32E-06  1.50E-04  3.60E-06  4.07E-04  0.00E+00  0.00E+00  4.92E-06  5.57E-04  7.02E-03  0.50599
   1066.    9.381  1.51E-06  1.71E-04  3.93E-06  4.47E-04  0.00E+00  0.00E+00  5.44E-06  6.19E-04  7.03E-03  0.55605
   1068.    9.363  1.15E-06  1.31E-04  4.78E-06  5.45E-04  0.00E+00  0.00E+00  5.93E-06  6.77E-04  7.04E-03  0.67900
   1070.    9.346  8.56E-07  9.80E-05  5.45E-06  6.25E-04  0.00E+00  0.00E+00  6.31E-06  7.23E-04  7.06E-03  0.77777
   1072.    9.328  1.04E-06  1.20E-04  5.38E-06  6.18E-04  0.00E+00  0.00E+00  6.42E-06  7.38E-04  7.07E-03  0.76987
   1074.    9.311  1.44E-06  1.66E-04  4.84E-06  5.58E-04  0.00E+00  0.00E+00  6.27E-06  7.24E-04  7.08E-03  0.69581
   1076.    9.294  1.16E-06  1.34E-04  5.14E-06  5.95E-04  0.00E+00  0.00E+00  6.30E-06  7.29E-04  7.09E-03  0.74293
   1078.    9.276  8.42E-07  9.78E-05  5.58E-06  6.49E-04  0.00E+00  0.00E+00  6.42E-06  7.46E-04  7.11E-03  0.80991
   1080.    9.259  9.19E-07  1.07E-04  5.39E-06  6.29E-04  0.00E+00  0.00E+00  6.31E-06  7.36E-04  7.12E-03  0.78543
   1082.    9.242  8.64E-07  1.01E-04  5.45E-06  6.38E-04  0.00E+00  0.00E+00  6.32E-06  7.39E-04  7.13E-03  0.79830
   1084.    9.225  7.53E-07  8.84E-05  5.66E-06  6.65E-04  0.00E+00  0.00E+00  6.41E-06  7.53E-04  7.14E-03  0.83188
   1086.    9.208  7.64E-07  9.01E-05  5.60E-06  6.60E-04  0.00E+00  0.00E+00  6.36E-06  7.50E-04  7.16E-03  0.82655
   1088.    9.191  6.44E-07  7.63E-05  5.72E-06  6.77E-04  0.00E+00  0.00E+00  6.37E-06  7.54E-04  7.17E-03  0.84894
   1090.    9.174  8.91E-07  1.06E-04  5.42E-06  6.44E-04  0.00E+00  0.00E+00  6.31E-06  7.49E-04  7.18E-03  0.80712
   1092.    9.158  8.53E-07  1.02E-04  5.46E-06  6.51E-04  0.00E+00  0.00E+00  6.31E-06  7.53E-04  7.19E-03  0.81788
   1094.    9.141  4.10E-07  4.91E-05  5.98E-06  7.16E-04  0.00E+00  0.00E+00  6.39E-06  7.65E-04  7.21E-03  0.90002
   1096.    9.124  3.43E-07  4.12E-05  6.06E-06  7.28E-04  0.00E+00  0.00E+00  6.40E-06  7.69E-04  7.22E-03  0.91563
   1098.    9.107  5.36E-07  6.47E-05  5.79E-06  6.98E-04  0.00E+00  0.00E+00  6.33E-06  7.63E-04  7.23E-03  0.87890
   1100.    9.091  1.21E-06  1.46E-04  4.88E-06  5.90E-04  0.00E+00  0.00E+00  6.08E-06  7.36E-04  7.25E-03  0.74324
  iv         1105
1                                             RADIANCE(WATTS/CM2-STER-XXX)
0  FREQ   WAVLEN    PATH THERMAL      SURFACE EMISSION    SURFACE REFLECTED     TOTAL RADIANCE   INTEGRAL    TOTAL
  (CM-1) (MICRN)    (CM-1)   (MICRN)    (CM-1)   (MICRN)    (CM-1)   (MICRN)    (CM-1)   (MICRN)    (CM-1)   TRANS

   1102.    9.074  9.23E-07  1.12E-04  5.22E-06  6.34E-04  0.00E+00  0.00E+00  6.14E-06  7.46E-04  7.26E-03  0.79945
   1104.    9.058  4.28E-07  5.22E-05  5.86E-06  7.14E-04  0.00E+00  0.00E+00  6.29E-06  7.66E-04  7.27E-03  0.90127
   1106.    9.042  9.53E-07  1.17E-04  5.14E-06  6.29E-04  0.00E+00  0.00E+00  6.10E-06  7.46E-04  7.28E-03  0.79452
   1108.    9.025  8.82E-07  1.08E-04  5.20E-06  6.39E-04  0.00E+00  0.00E+00  6.08E-06  7.47E-04  7.29E-03  0.80774
   1110.    9.009  6.65E-07  8.20E-05  5.46E-06  6.72E-04  0.00E+00  0.00E+00  6.12E-06  7.54E-04  7.31E-03  0.85052
   1112.    8.993  1.06E-06  1.31E-04  4.87E-06  6.02E-04  0.00E+00  0.00E+00  5.93E-06  7.33E-04  7.32E-03  0.76286
   1114.    8.977  5.40E-07  6.71E-05  5.52E-06  6.85E-04  0.00E+00  0.00E+00  6.06E-06  7.53E-04  7.33E-03  0.86956
   1116.    8.961  3.55E-07  4.42E-05  5.75E-06  7.16E-04  0.00E+00  0.00E+00  6.10E-06  7.60E-04  7.34E-03  0.90840
   1118.    8.945  4.69E-07  5.87E-05  5.55E-06  6.94E-04  0.00E+00  0.00E+00  6.02E-06  7.52E-04  7.35E-03  0.88167
   1120.    8.929  1.03E-06  1.30E-04  4.74E-06  5.94E-04  0.00E+00  0.00E+00  5.77E-06  7.24E-04  7.37E-03  0.75540
   1122.    8.913  1.05E-06  1.32E-04  4.68E-06  5.89E-04  0.00E+00  0.00E+00  5.73E-06  7.21E-04  7.38E-03  0.75068
   1124.    8.897  3.88E-07  4.90E-05  5.53E-06  6.99E-04  0.00E+00  0.00E+00  5.92E-06  7.48E-04  7.39E-03  0.89116
   1126.    8.881  3.03E-07  3.84E-05  5.61E-06  7.12E-04  0.00E+00  0.00E+00  5.92E-06  7.50E-04  7.40E-03  0.90862
   1128.    8.865  2.89E-07  3.67E-05  5.62E-06  7.16E-04  0.00E+00  0.00E+00  5.91E-06  7.52E-04  7.41E-03  0.91436
   1130.    8.850  3.14E-07  4.00E-05  5.57E-06  7.12E-04  0.00E+00  0.00E+00  5.89E-06  7.52E-04  7.43E-03  0.91046
   1132.    8.834  3.80E-07  4.87E-05  5.49E-06  7.03E-04  0.00E+00  0.00E+00  5.87E-06  7.52E-04  7.44E-03  0.90032
   1134.    8.818  1.14E-06  1.47E-04  4.43E-06  5.70E-04  0.00E+00  0.00E+00  5.58E-06  7.17E-04  7.45E-03  0.73055
   1136.    8.803  2.22E-06  2.86E-04  2.82E-06  3.63E-04  0.00E+00  0.00E+00  5.03E-06  6.50E-04  7.46E-03  0.46641
   1138.    8.787  1.35E-06  1.75E-04  4.08E-06  5.28E-04  0.00E+00  0.00E+00  5.43E-06  7.03E-04  7.47E-03  0.67913
   1140.    8.772  4.27E-07  5.55E-05  5.38E-06  6.99E-04  0.00E+00  0.00E+00  5.81E-06  7.55E-04  7.48E-03  0.89950
   1142.    8.757  3.57E-07  4.66E-05  5.44E-06  7.09E-04  0.00E+00  0.00E+00  5.79E-06  7.55E-04  7.49E-03  0.91316
   1144.    8.741  2.91E-07  3.81E-05  5.48E-06  7.18E-04  0.00E+00  0.00E+00  5.77E-06  7.56E-04  7.50E-03  0.92560
   1146.    8.726  2.87E-07  3.77E-05  5.46E-06  7.17E-04  0.00E+00  0.00E+00  5.75E-06  7.55E-04  7.52E-03  0.92655
   1148.    8.711  8.19E-07  1.08E-04  4.71E-06  6.21E-04  0.00E+00  0.00E+00  5.53E-06  7.29E-04  7.53E-03  0.80235
   1150.    8.696  1.23E-06  1.62E-04  4.16E-06  5.50E-04  0.00E+00  0.00E+00  5.38E-06  7.12E-04  7.54E-03  0.71173
   1152.    8.681  1.29E-06  1.71E-04  4.06E-06  5.39E-04  0.00E+00  0.00E+00  5.35E-06  7.10E-04  7.55E-03  0.69875
   1154.    8.666  6.79E-07  9.04E-05  4.85E-06  6.46E-04  0.00E+00  0.00E+00  5.53E-06  7.37E-04  7.56E-03  0.83957
   1156.    8.651  2.83E-07  3.78E-05  5.34E-06  7.14E-04  0.00E+00  0.00E+00  5.62E-06  7.51E-04  7.57E-03  0.92767
   1158.    8.636  2.56E-07  3.43E-05  5.35E-06  7.17E-04  0.00E+00  0.00E+00  5.60E-06  7.52E-04  7.58E-03  0.93350
   1160.    8.621  2.75E-07  3.71E-05  5.30E-06  7.13E-04  0.00E+00  0.00E+00  5.57E-06  7.50E-04  7.59E-03  0.92869
   1162.    8.606  3.37E-07  4.56E-05  5.20E-06  7.02E-04  0.00E+00  0.00E+00  5.54E-06  7.48E-04  7.60E-03  0.91633
   1164.    8.591  1.09E-06  1.48E-04  4.13E-06  5.59E-04  0.00E+00  0.00E+00  5.22E-06  7.07E-04  7.61E-03  0.73015
   1166.    8.576  1.38E-06  1.88E-04  3.71E-06  5.05E-04  0.00E+00  0.00E+00  5.10E-06  6.93E-04  7.62E-03  0.66115
   1168.    8.562  5.34E-07  7.29E-05  4.88E-06  6.66E-04  0.00E+00  0.00E+00  5.41E-06  7.39E-04  7.63E-03  0.87271
   1170.    8.547  4.24E-07  5.80E-05  5.01E-06  6.85E-04  0.00E+00  0.00E+00  5.43E-06  7.43E-04  7.65E-03  0.89946
   1172.    8.532  9.39E-07  1.29E-04  4.31E-06  5.92E-04  0.00E+00  0.00E+00  5.25E-06  7.21E-04  7.66E-03  0.77758
   1174.    8.518  2.18E-06  3.01E-04  2.40E-06  3.31E-04  0.00E+00  0.00E+00  4.59E-06  6.32E-04  7.67E-03  0.43538
   1176.    8.503  1.61E-06  2.22E-04  3.17E-06  4.38E-04  0.00E+00  0.00E+00  4.78E-06  6.61E-04  7.67E-03  0.57858
   1178.    8.489  5.94E-07  8.24E-05  4.70E-06  6.53E-04  0.00E+00  0.00E+00  5.30E-06  7.35E-04  7.69E-03  0.86194
   1180.    8.475  5.22E-07  7.27E-05  4.76E-06  6.62E-04  0.00E+00  0.00E+00  5.28E-06  7.35E-04  7.70E-03  0.87549
   1182.    8.460  4.68E-07  6.53E-05  4.80E-06  6.71E-04  0.00E+00  0.00E+00  5.27E-06  7.36E-04  7.71E-03  0.88871
   1184.    8.446  5.72E-07  8.02E-05  4.67E-06  6.54E-04  0.00E+00  0.00E+00  5.24E-06  7.34E-04  7.72E-03  0.86715
   1186.    8.432  1.52E-06  2.13E-04  3.21E-06  4.52E-04  0.00E+00  0.00E+00  4.73E-06  6.65E-04  7.73E-03  0.59905
   1188.    8.418  1.85E-06  2.62E-04  2.75E-06  3.88E-04  0.00E+00  0.00E+00  4.60E-06  6.50E-04  7.74E-03  0.51693
   1190.    8.403  8.74E-07  1.24E-04  4.19E-06  5.93E-04  0.00E+00  0.00E+00  5.06E-06  7.17E-04  7.75E-03  0.79025
   1192.    8.389  5.54E-07  7.88E-05  4.56E-06  6.47E-04  0.00E+00  0.00E+00  5.11E-06  7.26E-04  7.76E-03  0.86403
   1194.    8.375  5.07E-07  7.23E-05  4.60E-06  6.56E-04  0.00E+00  0.00E+00  5.11E-06  7.29E-04  7.77E-03  0.87731
   1196.    8.361  8.12E-07  1.16E-04  4.12E-06  5.89E-04  0.00E+00  0.00E+00  4.93E-06  7.05E-04  7.78E-03  0.78797
   1198.    8.347  1.59E-06  2.29E-04  2.93E-06  4.20E-04  0.00E+00  0.00E+00  4.52E-06  6.49E-04  7.79E-03  0.56342
   1200.    8.333  1.05E-06  1.52E-04  3.75E-06  5.40E-04  0.00E+00  0.00E+00  4.81E-06  6.92E-04  7.79E-03  0.72607
  iv         1205
1                                             RADIANCE(WATTS/CM2-STER-XXX)
0  FREQ   WAVLEN    PATH THERMAL      SURFACE EMISSION    SURFACE REFLECTED     TOTAL RADIANCE   INTEGRAL    TOTAL
  (CM-1) (MICRN)    (CM-1)   (MICRN)    (CM-1)   (MICRN)    (CM-1)   (MICRN)    (CM-1)   (MICRN)    (CM-1)   TRANS

   1202.    8.319  3.90E-07  5.64E-05  4.64E-06  6.70E-04  0.00E+00  0.00E+00  5.03E-06  7.26E-04  7.80E-03  0.90111
   1204.    8.306  4.14E-07  6.00E-05  4.58E-06  6.64E-04  0.00E+00  0.00E+00  5.00E-06  7.24E-04  7.81E-03  0.89480
   1206.    8.292  6.36E-07  9.26E-05  4.28E-06  6.22E-04  0.00E+00  0.00E+00  4.92E-06  7.15E-04  7.82E-03  0.84013
   1208.    8.278  6.58E-07  9.61E-05  4.23E-06  6.18E-04  0.00E+00  0.00E+00  4.89E-06  7.14E-04  7.83E-03  0.83540
   1210.    8.264  1.39E-06  2.04E-04  3.00E-06  4.39E-04  0.00E+00  0.00E+00  4.39E-06  6.43E-04  7.84E-03  0.59431
   1212.    8.251  2.33E-06  3.42E-04  1.52E-06  2.23E-04  0.00E+00  0.00E+00  3.85E-06  5.65E-04  7.85E-03  0.30253
   1214.    8.237  1.64E-06  2.42E-04  2.76E-06  4.06E-04  0.00E+00  0.00E+00  4.40E-06  6.49E-04  7.86E-03  0.55291
   1216.    8.224  9.68E-07  1.43E-04  3.70E-06  5.47E-04  0.00E+00  0.00E+00  4.66E-06  6.90E-04  7.87E-03  0.74397
   1218.    8.210  1.51E-06  2.23E-04  2.80E-06  4.15E-04  0.00E+00  0.00E+00  4.30E-06  6.38E-04  7.88E-03  0.56557
   1220.    8.197  1.65E-06  2.46E-04  2.50E-06  3.72E-04  0.00E+00  0.00E+00  4.15E-06  6.18E-04  7.89E-03  0.50865
   1222.    8.183  1.30E-06  1.94E-04  3.07E-06  4.58E-04  0.00E+00  0.00E+00  4.37E-06  6.52E-04  7.89E-03  0.62719
   1224.    8.170  1.85E-06  2.77E-04  2.09E-06  3.13E-04  0.00E+00  0.00E+00  3.94E-06  5.90E-04  7.90E-03  0.42830
   1226.    8.157  2.04E-06  3.06E-04  1.77E-06  2.67E-04  0.00E+00  0.00E+00  3.81E-06  5.73E-04  7.91E-03  0.36693
   1228.    8.143  1.13E-06  1.71E-04  3.18E-06  4.79E-04  0.00E+00  0.00E+00  4.31E-06  6.50E-04  7.92E-03  0.65949
   1230.    8.130  7.38E-07  1.12E-04  3.63E-06  5.49E-04  0.00E+00  0.00E+00  4.37E-06  6.61E-04  7.93E-03  0.75691
   1232.    8.117  4.71E-07  7.15E-05  4.09E-06  6.20E-04  0.00E+00  0.00E+00  4.56E-06  6.92E-04  7.94E-03  0.85655
   1234.    8.104  5.25E-07  7.99E-05  3.96E-06  6.04E-04  0.00E+00  0.00E+00  4.49E-06  6.84E-04  7.95E-03  0.83525
   1236.    8.091  9.95E-07  1.52E-04  3.08E-06  4.70E-04  0.00E+00  0.00E+00  4.07E-06  6.22E-04  7.95E-03  0.65134
   1238.    8.078  1.37E-06  2.10E-04  2.55E-06  3.92E-04  0.00E+00  0.00E+00  3.93E-06  6.02E-04  7.96E-03  0.54389
   1240.    8.065  1.38E-06  2.13E-04  2.61E-06  4.01E-04  0.00E+00  0.00E+00  3.99E-06  6.14E-04  7.97E-03  0.55836
   1242.    8.052  1.60E-06  2.47E-04  2.07E-06  3.19E-04  0.00E+00  0.00E+00  3.67E-06  5.66E-04  7.98E-03  0.44467
   1244.    8.039  2.16E-06  3.35E-04  9.69E-07  1.50E-04  0.00E+00  0.00E+00  3.13E-06  4.85E-04  7.98E-03  0.20924
   1246.    8.026  1.69E-06  2.62E-04  1.69E-06  2.63E-04  0.00E+00  0.00E+00  3.38E-06  5.25E-04  7.99E-03  0.36834
   1248.    8.013  1.26E-06  1.96E-04  2.35E-06  3.65E-04  0.00E+00  0.00E+00  3.61E-06  5.62E-04  8.00E-03  0.51226
   1250.    8.000  1.26E-06  1.97E-04  2.49E-06  3.90E-04  0.00E+00  0.00E+00  3.75E-06  5.87E-04  8.00E-03  0.54738
   1252.    7.987  1.49E-06  2.33E-04  2.15E-06  3.37E-04  0.00E+00  0.00E+00  3.64E-06  5.71E-04  8.01E-03  0.47473
   1254.    7.974  1.47E-06  2.31E-04  1.93E-06  3.03E-04  0.00E+00  0.00E+00  3.40E-06  5.34E-04  8.02E-03  0.42814
   1256.    7.962  1.42E-06  2.24E-04  2.26E-06  3.56E-04  0.00E+00  0.00E+00  3.68E-06  5.80E-04  8.03E-03  0.50358
   1258.    7.949  1.87E-06  2.97E-04  1.50E-06  2.37E-04  0.00E+00  0.00E+00  3.37E-06  5.33E-04  8.03E-03  0.33481
   1260.    7.937  2.03E-06  3.22E-04  4.16E-07  6.61E-05  0.00E+00  0.00E+00  2.44E-06  3.88E-04  8.04E-03  0.09355
   1262.    7.924  1.91E-06  3.03E-04  7.59E-07  1.21E-04  0.00E+00  0.00E+00  2.66E-06  4.24E-04  8.04E-03  0.17217
   1264.    7.911  2.04E-06  3.26E-04  9.12E-07  1.46E-04  0.00E+00  0.00E+00  2.95E-06  4.72E-04  8.05E-03  0.20734
   1266.    7.899  2.25E-06  3.60E-04  3.47E-07  5.57E-05  0.00E+00  0.00E+00  2.59E-06  4.16E-04  8.05E-03  0.07929
   1268.    7.886  2.10E-06  3.37E-04  8.29E-08  1.33E-05  0.00E+00  0.00E+00  2.18E-06  3.50E-04  8.06E-03  0.01903
   1270.    7.874  1.96E-06  3.16E-04  2.29E-08  3.69E-06  0.00E+00  0.00E+00  1.98E-06  3.19E-04  8.06E-03  0.00529
   1272.    7.862  1.97E-06  3.19E-04  2.73E-07  4.41E-05  0.00E+00  0.00E+00  2.25E-06  3.63E-04  8.07E-03  0.06369
   1274.    7.849  1.85E-06  3.00E-04  1.15E-06  1.87E-04  0.00E+00  0.00E+00  3.01E-06  4.88E-04  8.07E-03  0.27017
   1276.    7.837  1.32E-06  2.16E-04  1.85E-06  3.01E-04  0.00E+00  0.00E+00  3.18E-06  5.17E-04  8.08E-03  0.43503
   1278.    7.825  1.26E-06  2.05E-04  2.17E-06  3.55E-04  0.00E+00  0.00E+00  3.43E-06  5.60E-04  8.09E-03  0.51360
   1280.    7.813  1.85E-06  3.03E-04  1.32E-06  2.16E-04  0.00E+00  0.00E+00  3.16E-06  5.18E-04  8.09E-03  0.31234
   1282.    7.800  1.86E-06  3.05E-04  7.46E-07  1.23E-04  0.00E+00  0.00E+00  2.60E-06  4.28E-04  8.10E-03  0.17819
   1284.    7.788  1.88E-06  3.10E-04  8.39E-07  1.38E-04  0.00E+00  0.00E+00  2.72E-06  4.49E-04  8.10E-03  0.20143
   1286.    7.776  2.03E-06  3.36E-04  6.52E-07  1.08E-04  0.00E+00  0.00E+00  2.68E-06  4.44E-04  8.11E-03  0.15698
   1288.    7.764  1.84E-06  3.05E-04  2.01E-07  3.34E-05  0.00E+00  0.00E+00  2.04E-06  3.39E-04  8.11E-03  0.04884
   1290.    7.752  2.05E-06  3.42E-04  5.05E-07  8.40E-05  0.00E+00  0.00E+00  2.56E-06  4.26E-04  8.12E-03  0.12334
   1292.    7.740  1.93E-06  3.22E-04  9.52E-07  1.59E-04  0.00E+00  0.00E+00  2.88E-06  4.80E-04  8.12E-03  0.23342
   1294.    7.728  1.69E-06  2.83E-04  8.67E-07  1.45E-04  0.00E+00  0.00E+00  2.55E-06  4.28E-04  8.13E-03  0.21333
   1296.    7.716  1.78E-06  2.99E-04  3.93E-07  6.60E-05  0.00E+00  0.00E+00  2.18E-06  3.65E-04  8.13E-03  0.09717
   1298.    7.704  1.55E-06  2.61E-04  7.42E-07  1.25E-04  0.00E+00  0.00E+00  2.29E-06  3.86E-04  8.14E-03  0.18517
   1300.    7.692  1.35E-06  2.28E-04  9.86E-07  1.67E-04  0.00E+00  0.00E+00  2.33E-06  3.94E-04  8.14E-03  0.24658
  iv         1305
1                                             RADIANCE(WATTS/CM2-STER-XXX)
0  FREQ   WAVLEN    PATH THERMAL      SURFACE EMISSION    SURFACE REFLECTED     TOTAL RADIANCE   INTEGRAL    TOTAL
  (CM-1) (MICRN)    (CM-1)   (MICRN)    (CM-1)   (MICRN)    (CM-1)   (MICRN)    (CM-1)   (MICRN)    (CM-1)   TRANS

   1302.    7.680  1.27E-06  2.15E-04  4.86E-07  8.24E-05  0.00E+00  0.00E+00  1.76E-06  2.98E-04  8.15E-03  0.12220
   1304.    7.669  1.02E-06  1.74E-04  1.41E-07  2.39E-05  0.00E+00  0.00E+00  1.16E-06  1.98E-04  8.15E-03  0.03547
   1306.    7.657  1.21E-06  2.06E-04  9.12E-08  1.56E-05  0.00E+00  0.00E+00  1.30E-06  2.22E-04  8.15E-03  0.02324
   1308.    7.645  1.93E-06  3.31E-04  1.57E-07  2.68E-05  0.00E+00  0.00E+00  2.09E-06  3.58E-04  8.15E-03  0.04009
   1310.    7.634  2.15E-06  3.70E-04  2.65E-07  4.54E-05  0.00E+00  0.00E+00  2.42E-06  4.15E-04  8.16E-03  0.06806
   1312.    7.622  1.78E-06  3.06E-04  1.19E-07  2.05E-05  0.00E+00  0.00E+00  1.90E-06  3.27E-04  8.16E-03  0.03068
   1314.    7.610  1.63E-06  2.81E-04  5.74E-10  9.92E-08  0.00E+00  0.00E+00  1.63E-06  2.81E-04  8.17E-03  0.00015
   1316.    7.599  1.64E-06  2.85E-04  5.06E-10  8.77E-08  0.00E+00  0.00E+00  1.64E-06  2.85E-04  8.17E-03  0.00013
   1318.    7.587  1.43E-06  2.49E-04  1.08E-10  1.88E-08  0.00E+00  0.00E+00  1.43E-06  2.49E-04  8.17E-03  0.00003
   1320.    7.576  1.48E-06  2.58E-04  1.09E-08  1.90E-06  0.00E+00  0.00E+00  1.49E-06  2.60E-04  8.18E-03  0.00289
   1322.    7.564  1.78E-06  3.11E-04  7.41E-08  1.29E-05  0.00E+00  0.00E+00  1.85E-06  3.24E-04  8.18E-03  0.01972
   1324.    7.553  2.07E-06  3.64E-04  3.20E-07  5.61E-05  0.00E+00  0.00E+00  2.39E-06  4.20E-04  8.18E-03  0.08567
   1326.    7.541  1.92E-06  3.37E-04  3.82E-07  6.72E-05  0.00E+00  0.00E+00  2.30E-06  4.05E-04  8.19E-03  0.10260
   1328.    7.530  1.88E-06  3.32E-04  1.75E-07  3.09E-05  0.00E+00  0.00E+00  2.06E-06  3.63E-04  8.19E-03  0.04729
   1330.    7.519  1.96E-06  3.47E-04  2.98E-07  5.27E-05  0.00E+00  0.00E+00  2.26E-06  4.00E-04  8.20E-03  0.08096
   1332.    7.508  1.66E-06  2.94E-04  2.76E-07  4.89E-05  0.00E+00  0.00E+00  1.93E-06  3.43E-04  8.20E-03  0.07515
   1334.    7.496  1.83E-06  3.25E-04  9.64E-08  1.72E-05  0.00E+00  0.00E+00  1.92E-06  3.42E-04  8.21E-03  0.02645
   1336.    7.485  1.60E-06  2.85E-04  3.53E-08  6.30E-06  0.00E+00  0.00E+00  1.63E-06  2.92E-04  8.21E-03  0.00970
   1338.    7.474  1.02E-06  1.82E-04  2.19E-13  3.91E-11  0.00E+00  0.00E+00  1.02E-06  1.82E-04  8.21E-03  0.00000
   1340.    7.463  9.89E-07  1.78E-04  5.58E-11  1.00E-08  0.00E+00  0.00E+00  9.89E-07  1.78E-04  8.21E-03  0.00002
   1342.    7.452  1.25E-06  2.26E-04  1.30E-08  2.34E-06  0.00E+00  0.00E+00  1.27E-06  2.28E-04  8.22E-03  0.00367
   1344.    7.440  1.75E-06  3.17E-04  9.80E-08  1.77E-05  0.00E+00  0.00E+00  1.85E-06  3.34E-04  8.22E-03  0.02772
   1346.    7.429  1.75E-06  3.17E-04  1.17E-07  2.12E-05  0.00E+00  0.00E+00  1.87E-06  3.39E-04  8.22E-03  0.03311
   1348.    7.418  1.42E-06  2.58E-04  3.46E-08  6.29E-06  0.00E+00  0.00E+00  1.45E-06  2.64E-04  8.23E-03  0.00985
   1350.    7.407  1.49E-06  2.71E-04  2.64E-08  4.80E-06  0.00E+00  0.00E+00  1.51E-06  2.76E-04  8.23E-03  0.00758
   1352.    7.396  1.62E-06  2.96E-04  4.83E-08  8.84E-06  0.00E+00  0.00E+00  1.67E-06  3.05E-04  8.23E-03  0.01394
   1354.    7.386  1.46E-06  2.68E-04  2.02E-08  3.70E-06  0.00E+00  0.00E+00  1.48E-06  2.72E-04  8.23E-03  0.00584
   1356.    7.375  1.44E-06  2.65E-04  9.01E-09  1.66E-06  0.00E+00  0.00E+00  1.45E-06  2.66E-04  8.24E-03  0.00263
   1358.    7.364  1.57E-06  2.89E-04  9.24E-09  1.70E-06  0.00E+00  0.00E+00  1.58E-06  2.91E-04  8.24E-03  0.00270
   1360.    7.353  1.34E-06  2.47E-04  9.72E-10  1.80E-07  0.00E+00  0.00E+00  1.34E-06  2.48E-04  8.24E-03  0.00029
   1362.    7.342  9.72E-07  1.80E-04  7.98E-12  1.48E-09  0.00E+00  0.00E+00  9.72E-07  1.80E-04  8.25E-03  0.00000
   1364.    7.331  1.12E-06  2.09E-04  2.71E-10  5.04E-08  0.00E+00  0.00E+00  1.12E-06  2.09E-04  8.25E-03  0.00008
   1366.    7.321  1.53E-06  2.86E-04  1.66E-09  3.10E-07  0.00E+00  0.00E+00  1.53E-06  2.86E-04  8.25E-03  0.00050
   1368.    7.310  1.33E-06  2.49E-04  1.13E-09  2.12E-07  0.00E+00  0.00E+00  1.33E-06  2.49E-04  8.25E-03  0.00034
   1370.    7.299  1.28E-06  2.40E-04  2.96E-11  5.55E-09  0.00E+00  0.00E+00  1.28E-06  2.40E-04  8.26E-03  0.00001
   1372.    7.289  1.19E-06  2.24E-04  2.27E-11  4.27E-09  0.00E+00  0.00E+00  1.19E-06  2.24E-04  8.26E-03  0.00001
   1374.    7.278  8.38E-07  1.58E-04  1.45E-14  2.73E-12  0.00E+00  0.00E+00  8.38E-07  1.58E-04  8.26E-03  0.00000
   1376.    7.267  9.98E-07  1.89E-04  1.94E-12  3.68E-10  0.00E+00  0.00E+00  9.98E-07  1.89E-04  8.26E-03  0.00000
   1378.    7.257  1.23E-06  2.34E-04  7.93E-12  1.51E-09  0.00E+00  0.00E+00  1.23E-06  2.34E-04  8.26E-03  0.00000
   1380.    7.246  1.37E-06  2.60E-04  1.45E-09  2.76E-07  0.00E+00  0.00E+00  1.37E-06  2.61E-04  8.27E-03  0.00045
   1382.    7.236  1.54E-06  2.95E-04  2.26E-09  4.31E-07  0.00E+00  0.00E+00  1.54E-06  2.95E-04  8.27E-03  0.00071
   1384.    7.225  1.46E-06  2.79E-04  7.64E-10  1.46E-07  0.00E+00  0.00E+00  1.46E-06  2.79E-04  8.27E-03  0.00024
   1386.    7.215  1.04E-06  2.00E-04  7.63E-11  1.46E-08  0.00E+00  0.00E+00  1.04E-06  2.00E-04  8.28E-03  0.00002
   1388.    7.205  8.66E-07  1.67E-04  2.10E-14  4.04E-12  0.00E+00  0.00E+00  8.66E-07  1.67E-04  8.28E-03  0.00000
   1390.    7.194  1.12E-06  2.17E-04  8.09E-14  1.56E-11  0.00E+00  0.00E+00  1.12E-06  2.17E-04  8.28E-03  0.00000
   1392.    7.184  1.09E-06  2.11E-04  4.28E-14  8.30E-12  0.00E+00  0.00E+00  1.09E-06  2.11E-04  8.28E-03  0.00000
   1394.    7.174  7.65E-07  1.49E-04  1.41E-15  2.75E-13  0.00E+00  0.00E+00  7.65E-07  1.49E-04  8.28E-03  0.00000
   1396.    7.163  7.46E-07  1.45E-04  6.59E-18  1.28E-15  0.00E+00  0.00E+00  7.46E-07  1.45E-04  8.28E-03  0.00000
   1398.    7.153  7.56E-07  1.48E-04  3.74E-14  7.30E-12  0.00E+00  0.00E+00  7.56E-07  1.48E-04  8.29E-03  0.00000
   1400.    7.143  8.32E-07  1.63E-04  7.18E-14  1.41E-11  0.00E+00  0.00E+00  8.32E-07  1.63E-04  8.29E-03  0.00000
  iv         1405
1                                             RADIANCE(WATTS/CM2-STER-XXX)
0  FREQ   WAVLEN    PATH THERMAL      SURFACE EMISSION    SURFACE REFLECTED     TOTAL RADIANCE   INTEGRAL    TOTAL
  (CM-1) (MICRN)    (CM-1)   (MICRN)    (CM-1)   (MICRN)    (CM-1)   (MICRN)    (CM-1)   (MICRN)    (CM-1)   TRANS

   1402.    7.133  1.10E-06  2.16E-04  1.04E-13  2.05E-11  0.00E+00  0.00E+00  1.10E-06  2.16E-04  8.29E-03  0.00000
   1404.    7.123  9.30E-07  1.83E-04  1.86E-12  3.68E-10  0.00E+00  0.00E+00  9.30E-07  1.83E-04  8.29E-03  0.00000
   1406.    7.112  1.05E-06  2.08E-04  2.12E-11  4.20E-09  0.00E+00  0.00E+00  1.05E-06  2.08E-04  8.29E-03  0.00001
   1408.    7.102  1.30E-06  2.58E-04  5.56E-11  1.10E-08  0.00E+00  0.00E+00  1.30E-06  2.58E-04  8.30E-03  0.00002
   1410.    7.092  1.15E-06  2.29E-04  2.00E-11  3.98E-09  0.00E+00  0.00E+00  1.15E-06  2.29E-04  8.30E-03  0.00001
   1412.    7.082  1.09E-06  2.17E-04  6.60E-12  1.32E-09  0.00E+00  0.00E+00  1.09E-06  2.17E-04  8.30E-03  0.00000
   1414.    7.072  1.12E-06  2.25E-04  6.52E-12  1.30E-09  0.00E+00  0.00E+00  1.12E-06  2.25E-04  8.30E-03  0.00000
   1416.    7.062  8.63E-07  1.73E-04  2.33E-13  4.68E-11  0.00E+00  0.00E+00  8.63E-07  1.73E-04  8.31E-03  0.00000
   1418.    7.052  5.96E-07  1.20E-04  2.50E-20  5.03E-18  0.00E+00  0.00E+00  5.96E-07  1.20E-04  8.31E-03  0.00000
   1420.    7.042  5.80E-07  1.17E-04  2.82E-24  5.69E-22  0.00E+00  0.00E+00  5.80E-07  1.17E-04  8.31E-03  0.00000
   1422.    7.032  7.45E-07  1.51E-04  7.63E-19  1.54E-16  0.00E+00  0.00E+00  7.45E-07  1.51E-04  8.31E-03  0.00000
   1424.    7.022  7.38E-07  1.50E-04  1.43E-16  2.89E-14  0.00E+00  0.00E+00  7.38E-07  1.50E-04  8.31E-03  0.00000
   1426.    7.013  9.28E-07  1.89E-04  1.49E-15  3.02E-13  0.00E+00  0.00E+00  9.28E-07  1.89E-04  8.31E-03  0.00000
   1428.    7.003  8.47E-07  1.73E-04  3.31E-15  6.76E-13  0.00E+00  0.00E+00  8.47E-07  1.73E-04  8.31E-03  0.00000
   1430.    6.993  6.91E-07  1.41E-04  6.33E-15  1.29E-12  0.00E+00  0.00E+00  6.91E-07  1.41E-04  8.32E-03  0.00000
   1432.    6.983  7.82E-07  1.60E-04  2.11E-15  4.33E-13  0.00E+00  0.00E+00  7.82E-07  1.60E-04  8.32E-03  0.00000
   1434.    6.974  7.27E-07  1.49E-04  3.23E-19  6.64E-17  0.00E+00  0.00E+00  7.27E-07  1.49E-04  8.32E-03  0.00000
   1436.    6.964  5.34E-07  1.10E-04  1.02E-25  2.11E-23  0.00E+00  0.00E+00  5.34E-07  1.10E-04  8.32E-03  0.00000
   1438.    6.954  6.41E-07  1.33E-04  9.69E-18  2.00E-15  0.00E+00  0.00E+00  6.41E-07  1.33E-04  8.32E-03  0.00000
   1440.    6.944  9.28E-07  1.92E-04  1.40E-14  2.90E-12  0.00E+00  0.00E+00  9.28E-07  1.92E-04  8.32E-03  0.00000
   1442.    6.935  1.03E-06  2.15E-04  1.10E-13  2.30E-11  0.00E+00  0.00E+00  1.03E-06  2.15E-04  8.32E-03  0.00000
   1444.    6.925  9.96E-07  2.08E-04  1.38E-13  2.87E-11  0.00E+00  0.00E+00  9.96E-07  2.08E-04  8.33E-03  0.00000
   1446.    6.916  7.56E-07  1.58E-04  2.71E-14  5.67E-12  0.00E+00  0.00E+00  7.56E-07  1.58E-04  8.33E-03  0.00000
   1448.    6.906  6.35E-07  1.33E-04  4.08E-16  8.56E-14  0.00E+00  0.00E+00  6.35E-07  1.33E-04  8.33E-03  0.00000
   1450.    6.897  7.63E-07  1.60E-04  1.36E-16  2.87E-14  0.00E+00  0.00E+00  7.63E-07  1.60E-04  8.33E-03  0.00000
   1452.    6.887  7.09E-07  1.49E-04  7.43E-20  1.57E-17  0.00E+00  0.00E+00  7.09E-07  1.49E-04  8.33E-03  0.00000
   1454.    6.878  5.86E-07  1.24E-04  8.91E-24  1.88E-21  0.00E+00  0.00E+00  5.86E-07  1.24E-04  8.33E-03  0.00000
   1456.    6.868  4.00E-07  8.48E-05  3.11E-39  6.58E-37  0.00E+00  0.00E+00  4.00E-07  8.48E-05  8.33E-03  0.00000
   1458.    6.859  3.66E-07  7.77E-05  0.00E+00  0.00E+00  0.00E+00  0.00E+00  3.66E-07  7.77E-05  8.33E-03  0.00000
   1460.    6.849  5.42E-07  1.16E-04  1.17E-27  2.49E-25  0.00E+00  0.00E+00  5.42E-07  1.16E-04  8.34E-03  0.00000
   1462.    6.840  6.54E-07  1.40E-04  3.50E-27  7.48E-25  0.00E+00  0.00E+00  6.54E-07  1.40E-04  8.34E-03  0.00000
   1464.    6.831  5.01E-07  1.07E-04  2.83E-19  6.07E-17  0.00E+00  0.00E+00  5.01E-07  1.07E-04  8.34E-03  0.00000
   1466.    6.821  5.33E-07  1.15E-04  2.83E-19  6.08E-17  0.00E+00  0.00E+00  5.33E-07  1.15E-04  8.34E-03  0.00000
   1468.    6.812  6.79E-07  1.46E-04  3.73E-24  8.05E-22  0.00E+00  0.00E+00  6.79E-07  1.46E-04  8.34E-03  0.00000
   1470.    6.803  5.96E-07  1.29E-04  2.06E-24  4.44E-22  0.00E+00  0.00E+00  5.96E-07  1.29E-04  8.34E-03  0.00000
   1472.    6.793  3.98E-07  8.63E-05  4.72E-33  1.02E-30  0.00E+00  0.00E+00  3.98E-07  8.63E-05  8.34E-03  0.00000
   1474.    6.784  3.81E-07  8.28E-05  1.68E-32  3.64E-30  0.00E+00  0.00E+00  3.81E-07  8.28E-05  8.34E-03  0.00000
   1476.    6.775  4.62E-07  1.01E-04  6.42E-27  1.40E-24  0.00E+00  0.00E+00  4.62E-07  1.01E-04  8.34E-03  0.00000
   1478.    6.766  6.42E-07  1.40E-04  3.64E-21  7.95E-19  0.00E+00  0.00E+00  6.42E-07  1.40E-04  8.35E-03  0.00000
   1480.    6.757  6.70E-07  1.47E-04  6.07E-21  1.33E-18  0.00E+00  0.00E+00  6.70E-07  1.47E-04  8.35E-03  0.00000
   1482.    6.748  6.39E-07  1.40E-04  1.58E-20  3.47E-18  0.00E+00  0.00E+00  6.39E-07  1.40E-04  8.35E-03  0.00000
   1484.    6.739  6.78E-07  1.49E-04  1.53E-20  3.37E-18  0.00E+00  0.00E+00  6.78E-07  1.49E-04  8.35E-03  0.00000
   1486.    6.729  5.16E-07  1.14E-04  9.56E-22  2.11E-19  0.00E+00  0.00E+00  5.16E-07  1.14E-04  8.35E-03  0.00000
   1488.    6.720  3.88E-07  8.60E-05  1.08E-28  2.39E-26  0.00E+00  0.00E+00  3.88E-07  8.60E-05  8.35E-03  0.00000
   1490.    6.711  3.73E-07  8.28E-05  5.01E-39  1.11E-36  0.00E+00  0.00E+00  3.73E-07  8.28E-05  8.35E-03  0.00000
   1492.    6.702  4.90E-07  1.09E-04  2.51E-32  5.59E-30  0.00E+00  0.00E+00  4.90E-07  1.09E-04  8.35E-03  0.00000
   1494.    6.693  5.24E-07  1.17E-04  8.49E-28  1.89E-25  0.00E+00  0.00E+00  5.24E-07  1.17E-04  8.35E-03  0.00000
   1496.    6.684  3.79E-07  8.48E-05  2.55E-27  5.70E-25  0.00E+00  0.00E+00  3.79E-07  8.48E-05  8.36E-03  0.00000
   1498.    6.676  3.39E-07  7.60E-05  8.49E-28  1.90E-25  0.00E+00  0.00E+00  3.39E-07  7.60E-05  8.36E-03  0.00000
   1500.    6.667  4.04E-07  9.10E-05  1.17E-35  2.64E-33  0.00E+00  0.00E+00  4.04E-07  9.10E-05  8.36E-03  0.00000
  iv         1505
1                                             RADIANCE(WATTS/CM2-STER-XXX)
0  FREQ   WAVLEN    PATH THERMAL      SURFACE EMISSION    SURFACE REFLECTED     TOTAL RADIANCE   INTEGRAL    TOTAL
  (CM-1) (MICRN)    (CM-1)   (MICRN)    (CM-1)   (MICRN)    (CM-1)   (MICRN)    (CM-1)   (MICRN)    (CM-1)   TRANS

   1502.    6.658  4.60E-07  1.04E-04  4.75E-41  1.07E-38  0.00E+00  0.00E+00  4.60E-07  1.04E-04  8.36E-03  0.00000
   1504.    6.649  3.93E-07  8.89E-05  1.58E-41  3.58E-39  0.00E+00  0.00E+00  3.93E-07  8.89E-05  8.36E-03  0.00000
   1506.    6.640  2.71E-07  6.14E-05  0.00E+00  0.00E+00  0.00E+00  0.00E+00  2.71E-07  6.14E-05  8.36E-03  0.00000
   1508.    6.631  2.67E-07  6.08E-05  0.00E+00  0.00E+00  0.00E+00  0.00E+00  2.67E-07  6.08E-05  8.36E-03  0.00000
   1510.    6.623  3.26E-07  7.43E-05  1.39E-40  3.18E-38  0.00E+00  0.00E+00  3.26E-07  7.43E-05  8.36E-03  0.00000
   1512.    6.614  3.79E-07  8.67E-05  4.18E-40  9.57E-38  0.00E+00  0.00E+00  3.79E-07  8.67E-05  8.36E-03  0.00000
   1514.    6.605  4.02E-07  9.22E-05  1.39E-40  3.20E-38  0.00E+00  0.00E+00  4.02E-07  9.22E-05  8.36E-03  0.00000
   1516.    6.596  3.27E-07  7.51E-05  0.00E+00  0.00E+00  0.00E+00  0.00E+00  3.27E-07  7.51E-05  8.36E-03  0.00000
   1518.    6.588  3.12E-07  7.19E-05  0.00E+00  0.00E+00  0.00E+00  0.00E+00  3.12E-07  7.19E-05  8.36E-03  0.00000
   1520.    6.579  2.91E-07  6.72E-05  0.00E+00  0.00E+00  0.00E+00  0.00E+00  2.91E-07  6.72E-05  8.36E-03  0.00000
   1522.    6.570  2.58E-07  5.98E-05  0.00E+00  0.00E+00  0.00E+00  0.00E+00  2.58E-07  5.98E-05  8.36E-03  0.00000
   1524.    6.562  2.92E-07  6.79E-05  0.00E+00  0.00E+00  0.00E+00  0.00E+00  2.92E-07  6.79E-05  8.36E-03  0.00000
   1526.    6.553  3.22E-07  7.49E-05  0.00E+00  0.00E+00  0.00E+00  0.00E+00  3.22E-07  7.49E-05  8.37E-03  0.00000
   1528.    6.545  3.56E-07  8.31E-05  2.97E-39  6.93E-37  0.00E+00  0.00E+00  3.56E-07  8.31E-05  8.37E-03  0.00000
   1530.    6.536  4.01E-07  9.39E-05  2.97E-39  6.95E-37  0.00E+00  0.00E+00  4.01E-07  9.39E-05  8.37E-03  0.00000
   1532.    6.527  3.39E-07  7.95E-05  1.54E-44  3.62E-42  0.00E+00  0.00E+00  3.39E-07  7.95E-05  8.37E-03  0.00000
   1534.    6.519  2.89E-07  6.79E-05  0.00E+00  0.00E+00  0.00E+00  0.00E+00  2.89E-07  6.79E-05  8.37E-03  0.00000
   1536.    6.510  3.42E-07  8.06E-05  0.00E+00  0.00E+00  0.00E+00  0.00E+00  3.42E-07  8.06E-05  8.37E-03  0.00000
   1538.    6.502  2.72E-07  6.44E-05  0.00E+00  0.00E+00  0.00E+00  0.00E+00  2.72E-07  6.44E-05  8.37E-03  0.00000
   1540.    6.494  2.09E-07  4.95E-05  0.00E+00  0.00E+00  0.00E+00  0.00E+00  2.09E-07  4.95E-05  8.37E-03  0.00000
   1542.    6.485  2.25E-07  5.34E-05  0.00E+00  0.00E+00  0.00E+00  0.00E+00  2.25E-07  5.34E-05  8.37E-03  0.00000
   1544.    6.477  2.67E-07  6.35E-05  0.00E+00  0.00E+00  0.00E+00  0.00E+00  2.67E-07  6.35E-05  8.37E-03  0.00000
   1546.    6.468  3.32E-07  7.94E-05  7.07E-42  1.69E-39  0.00E+00  0.00E+00  3.32E-07  7.94E-05  8.37E-03  0.00000
   1548.    6.460  3.90E-07  9.35E-05  8.62E-38  2.07E-35  0.00E+00  0.00E+00  3.90E-07  9.35E-05  8.37E-03  0.00000
   1550.    6.452  3.50E-07  8.40E-05  2.58E-37  6.21E-35  0.00E+00  0.00E+00  3.50E-07  8.40E-05  8.37E-03  0.00000
   1552.    6.443  3.40E-07  8.19E-05  8.62E-38  2.08E-35  0.00E+00  0.00E+00  3.40E-07  8.19E-05  8.37E-03  0.00000
   1554.    6.435  2.84E-07  6.85E-05  3.93E-42  9.50E-40  0.00E+00  0.00E+00  2.84E-07  6.85E-05  8.37E-03  0.00000
   1556.    6.427  2.48E-07  6.01E-05  1.31E-42  3.18E-40  0.00E+00  0.00E+00  2.48E-07  6.01E-05  8.37E-03  0.00000
   1558.    6.418  2.00E-07  4.86E-05  0.00E+00  0.00E+00  0.00E+00  0.00E+00  2.00E-07  4.86E-05  8.37E-03  0.00000
   1560.    6.410  2.05E-07  4.98E-05  0.00E+00  0.00E+00  0.00E+00  0.00E+00  2.05E-07  4.98E-05  8.38E-03  0.00000
   1562.    6.402  2.89E-07  7.05E-05  0.00E+00  0.00E+00  0.00E+00  0.00E+00  2.89E-07  7.05E-05  8.38E-03  0.00000
   1564.    6.394  3.08E-07  7.53E-05  6.98E-37  1.71E-34  0.00E+00  0.00E+00  3.08E-07  7.53E-05  8.38E-03  0.00000
   1566.    6.386  3.30E-07  8.09E-05  6.98E-37  1.71E-34  0.00E+00  0.00E+00  3.30E-07  8.09E-05  8.38E-03  0.00000
   1568.    6.378  3.02E-07  7.42E-05  3.31E-37  8.15E-35  0.00E+00  0.00E+00  3.02E-07  7.42E-05  8.38E-03  0.00000
   1570.    6.369  2.59E-07  6.39E-05  9.94E-37  2.45E-34  0.00E+00  0.00E+00  2.59E-07  6.39E-05  8.38E-03  0.00000
   1572.    6.361  3.39E-07  8.39E-05  3.31E-37  8.19E-35  0.00E+00  0.00E+00  3.39E-07  8.39E-05  8.38E-03  0.00000
   1574.    6.353  3.12E-07  7.74E-05  1.72E-22  4.26E-20  0.00E+00  0.00E+00  3.12E-07  7.74E-05  8.38E-03  0.00000
   1576.    6.345  2.21E-07  5.50E-05  5.16E-22  1.28E-19  0.00E+00  0.00E+00  2.21E-07  5.50E-05  8.38E-03  0.00000
   1578.    6.337  2.80E-07  6.97E-05  1.72E-22  4.28E-20  0.00E+00  0.00E+00  2.80E-07  6.97E-05  8.38E-03  0.00000
   1580.    6.329  4.13E-07  1.03E-04  3.37E-22  8.40E-20  0.00E+00  0.00E+00  4.13E-07  1.03E-04  8.38E-03  0.00000
   1582.    6.321  4.76E-07  1.19E-04  8.44E-19  2.11E-16  0.00E+00  0.00E+00  4.76E-07  1.19E-04  8.38E-03  0.00000
   1584.    6.313  5.21E-07  1.31E-04  5.13E-17  1.29E-14  0.00E+00  0.00E+00  5.21E-07  1.31E-04  8.38E-03  0.00000
   1586.    6.305  5.47E-07  1.38E-04  3.40E-16  8.55E-14  0.00E+00  0.00E+00  5.47E-07  1.38E-04  8.38E-03  0.00000
   1588.    6.297  5.28E-07  1.33E-04  5.44E-16  1.37E-13  0.00E+00  0.00E+00  5.28E-07  1.33E-04  8.39E-03  0.00000
   1590.    6.289  4.61E-07  1.17E-04  1.44E-16  3.65E-14  0.00E+00  0.00E+00  4.61E-07  1.17E-04  8.39E-03  0.00000
   1592.    6.281  4.36E-07  1.11E-04  9.00E-18  2.28E-15  0.00E+00  0.00E+00  4.36E-07  1.11E-04  8.39E-03  0.00000
   1594.    6.274  3.96E-07  1.01E-04  1.84E-17  4.68E-15  0.00E+00  0.00E+00  3.96E-07  1.01E-04  8.39E-03  0.00000
   1596.    6.266  4.15E-07  1.06E-04  8.80E-16  2.24E-13  0.00E+00  0.00E+00  4.15E-07  1.06E-04  8.39E-03  0.00000
   1598.    6.258  5.17E-07  1.32E-04  5.57E-15  1.42E-12  0.00E+00  0.00E+00  5.17E-07  1.32E-04  8.39E-03  0.00000
   1600.    6.250  4.88E-07  1.25E-04  4.16E-15  1.07E-12  0.00E+00  0.00E+00  4.88E-07  1.25E-04  8.39E-03  0.00000
  iv         1605
1                                             RADIANCE(WATTS/CM2-STER-XXX)
0  FREQ   WAVLEN    PATH THERMAL      SURFACE EMISSION    SURFACE REFLECTED     TOTAL RADIANCE   INTEGRAL    TOTAL
  (CM-1) (MICRN)    (CM-1)   (MICRN)    (CM-1)   (MICRN)    (CM-1)   (MICRN)    (CM-1)   (MICRN)    (CM-1)   TRANS

   1602.    6.242  3.91E-07  1.00E-04  1.73E-16  4.44E-14  0.00E+00  0.00E+00  3.91E-07  1.00E-04  8.39E-03  0.00000
   1604.    6.234  4.22E-07  1.09E-04  4.57E-17  1.17E-14  0.00E+00  0.00E+00  4.22E-07  1.09E-04  8.39E-03  0.00000
   1606.    6.227  4.22E-07  1.09E-04  4.57E-17  1.18E-14  0.00E+00  0.00E+00  4.22E-07  1.09E-04  8.39E-03  0.00000
   1608.    6.219  3.35E-07  8.67E-05  3.53E-20  9.14E-18  0.00E+00  0.00E+00  3.35E-07  8.67E-05  8.39E-03  0.00000
   1610.    6.211  3.52E-07  9.12E-05  5.21E-21  1.35E-18  0.00E+00  0.00E+00  3.52E-07  9.12E-05  8.39E-03  0.00000
   1612.    6.203  3.94E-07  1.02E-04  1.14E-21  2.96E-19  0.00E+00  0.00E+00  3.94E-07  1.02E-04  8.40E-03  0.00000
   1614.    6.196  3.22E-07  8.38E-05  2.84E-23  7.41E-21  0.00E+00  0.00E+00  3.22E-07  8.38E-05  8.40E-03  0.00000
   1616.    6.188  2.05E-07  5.35E-05  3.81E-19  9.95E-17  0.00E+00  0.00E+00  2.05E-07  5.35E-05  8.40E-03  0.00000
   1618.    6.180  2.24E-07  5.85E-05  3.81E-19  9.97E-17  0.00E+00  0.00E+00  2.24E-07  5.85E-05  8.40E-03  0.00000
   1620.    6.173  2.99E-07  7.85E-05  1.68E-35  4.40E-33  0.00E+00  0.00E+00  2.99E-07  7.85E-05  8.40E-03  0.00000
   1622.    6.165  2.55E-07  6.72E-05  2.25E-27  5.92E-25  0.00E+00  0.00E+00  2.55E-07  6.72E-05  8.40E-03  0.00000
   1624.    6.158  2.16E-07  5.70E-05  6.76E-27  1.78E-24  0.00E+00  0.00E+00  2.16E-07  5.70E-05  8.40E-03  0.00000
   1626.    6.150  2.47E-07  6.53E-05  8.40E-26  2.22E-23  0.00E+00  0.00E+00  2.47E-07  6.53E-05  8.40E-03  0.00000
   1628.    6.143  2.45E-07  6.49E-05  2.45E-25  6.50E-23  0.00E+00  0.00E+00  2.45E-07  6.49E-05  8.40E-03  0.00000
   1630.    6.135  3.17E-07  8.43E-05  8.19E-26  2.18E-23  0.00E+00  0.00E+00  3.17E-07  8.43E-05  8.40E-03  0.00000
   1632.    6.127  3.12E-07  8.32E-05  1.09E-28  2.90E-26  0.00E+00  0.00E+00  3.12E-07  8.32E-05  8.40E-03  0.00000
   1634.    6.120  2.08E-07  5.56E-05  7.88E-34  2.10E-31  0.00E+00  0.00E+00  2.08E-07  5.56E-05  8.40E-03  0.00000
   1636.    6.112  1.57E-07  4.19E-05  0.00E+00  0.00E+00  0.00E+00  0.00E+00  1.57E-07  4.19E-05  8.40E-03  0.00000
   1638.    6.105  2.01E-07  5.38E-05  1.16E-37  3.11E-35  0.00E+00  0.00E+00  2.01E-07  5.38E-05  8.40E-03  0.00000
   1640.    6.098  2.61E-07  7.03E-05  1.48E-35  3.98E-33  0.00E+00  0.00E+00  2.61E-07  7.03E-05  8.40E-03  0.00000
   1642.    6.090  2.81E-07  7.57E-05  4.30E-35  1.16E-32  0.00E+00  0.00E+00  2.81E-07  7.57E-05  8.40E-03  0.00000
   1644.    6.083  2.33E-07  6.30E-05  1.42E-35  3.84E-33  0.00E+00  0.00E+00  2.33E-07  6.30E-05  8.40E-03  0.00000
   1646.    6.075  1.57E-07  4.26E-05  0.00E+00  0.00E+00  0.00E+00  0.00E+00  1.57E-07  4.26E-05  8.40E-03  0.00000
   1648.    6.068  1.63E-07  4.44E-05  0.00E+00  0.00E+00  0.00E+00  0.00E+00  1.63E-07  4.44E-05  8.40E-03  0.00000
   1650.    6.061  1.85E-07  5.04E-05  0.00E+00  0.00E+00  0.00E+00  0.00E+00  1.85E-07  5.04E-05  8.40E-03  0.00000
   1652.    6.053  1.43E-07  3.90E-05  0.00E+00  0.00E+00  0.00E+00  0.00E+00  1.43E-07  3.90E-05  8.40E-03  0.00000
   1654.    6.046  1.33E-07  3.65E-05  0.00E+00  0.00E+00  0.00E+00  0.00E+00  1.33E-07  3.65E-05  8.41E-03  0.00000
   1656.    6.039  2.00E-07  5.49E-05  9.31E-40  2.55E-37  0.00E+00  0.00E+00  2.00E-07  5.49E-05  8.41E-03  0.00000
   1658.    6.031  2.74E-07  7.52E-05  1.16E-34  3.20E-32  0.00E+00  0.00E+00  2.74E-07  7.52E-05  8.41E-03  0.00000
   1660.    6.024  2.69E-07  7.42E-05  1.31E-34  3.61E-32  0.00E+00  0.00E+00  2.69E-07  7.42E-05  8.41E-03  0.00000
   1662.    6.017  1.96E-07  5.42E-05  1.39E-28  3.84E-26  0.00E+00  0.00E+00  1.96E-07  5.42E-05  8.41E-03  0.00000
   1664.    6.010  2.22E-07  6.15E-05  1.39E-28  3.85E-26  0.00E+00  0.00E+00  2.22E-07  6.15E-05  8.41E-03  0.00000
   1666.    6.002  2.64E-07  7.34E-05  3.50E-35  9.70E-33  0.00E+00  0.00E+00  2.64E-07  7.34E-05  8.41E-03  0.00000
   1668.    5.995  1.91E-07  5.31E-05  1.15E-35  3.21E-33  0.00E+00  0.00E+00  1.91E-07  5.31E-05  8.41E-03  0.00000
   1670.    5.988  1.45E-07  4.05E-05  0.00E+00  0.00E+00  0.00E+00  0.00E+00  1.45E-07  4.05E-05  8.41E-03  0.00000
   1672.    5.981  1.76E-07  4.93E-05  0.00E+00  0.00E+00  0.00E+00  0.00E+00  1.76E-07  4.93E-05  8.41E-03  0.00000
   1674.    5.974  1.82E-07  5.11E-05  0.00E+00  0.00E+00  0.00E+00  0.00E+00  1.82E-07  5.11E-05  8.41E-03  0.00000
   1676.    5.967  1.70E-07  4.78E-05  1.78E-43  5.00E-41  0.00E+00  0.00E+00  1.70E-07  4.78E-05  8.41E-03  0.00000
   1678.    5.959  2.13E-07  6.00E-05  1.04E-42  2.92E-40  0.00E+00  0.00E+00  2.13E-07  6.00E-05  8.41E-03  0.00000
   1680.    5.952  1.99E-07  5.61E-05  1.68E-42  4.75E-40  0.00E+00  0.00E+00  1.99E-07  5.61E-05  8.41E-03  0.00000
   1682.    5.945  1.68E-07  4.76E-05  5.02E-43  1.42E-40  0.00E+00  0.00E+00  1.68E-07  4.76E-05  8.41E-03  0.00000
   1684.    5.938  1.24E-07  3.52E-05  0.00E+00  0.00E+00  0.00E+00  0.00E+00  1.24E-07  3.52E-05  8.41E-03  0.00000
   1686.    5.931  1.53E-07  4.35E-05  0.00E+00  0.00E+00  0.00E+00  0.00E+00  1.53E-07  4.35E-05  8.41E-03  0.00000
   1688.    5.924  1.85E-07  5.27E-05  4.17E-39  1.19E-36  0.00E+00  0.00E+00  1.85E-07  5.27E-05  8.41E-03  0.00000
   1690.    5.917  1.94E-07  5.53E-05  1.25E-38  3.58E-36  0.00E+00  0.00E+00  1.94E-07  5.53E-05  8.41E-03  0.00000
   1692.    5.910  2.13E-07  6.11E-05  4.18E-39  1.20E-36  0.00E+00  0.00E+00  2.13E-07  6.11E-05  8.41E-03  0.00000
   1694.    5.903  1.72E-07  4.92E-05  2.97E-42  8.51E-40  0.00E+00  0.00E+00  1.72E-07  4.92E-05  8.41E-03  0.00000
   1696.    5.896  1.27E-07  3.65E-05  0.00E+00  0.00E+00  0.00E+00  0.00E+00  1.27E-07  3.65E-05  8.41E-03  0.00000
   1698.    5.889  1.28E-07  3.68E-05  0.00E+00  0.00E+00  0.00E+00  0.00E+00  1.28E-07  3.68E-05  8.41E-03  0.00000
   1700.    5.882  1.12E-07  3.22E-05  0.00E+00  0.00E+00  0.00E+00  0.00E+00  1.12E-07  3.22E-05  8.41E-03  0.00000
  iv         1705
1                                             RADIANCE(WATTS/CM2-STER-XXX)
0  FREQ   WAVLEN    PATH THERMAL      SURFACE EMISSION    SURFACE REFLECTED     TOTAL RADIANCE   INTEGRAL    TOTAL
  (CM-1) (MICRN)    (CM-1)   (MICRN)    (CM-1)   (MICRN)    (CM-1)   (MICRN)    (CM-1)   (MICRN)    (CM-1)   TRANS

   1702.    5.875  1.39E-07  4.03E-05  0.00E+00  0.00E+00  0.00E+00  0.00E+00  1.39E-07  4.03E-05  8.41E-03  0.00000
   1704.    5.869  1.47E-07  4.26E-05  3.33E-42  9.68E-40  0.00E+00  0.00E+00  1.47E-07  4.26E-05  8.41E-03  0.00000
   1706.    5.862  1.42E-07  4.12E-05  1.00E-41  2.91E-39  0.00E+00  0.00E+00  1.42E-07  4.12E-05  8.41E-03  0.00000
   1708.    5.855  1.92E-07  5.60E-05  3.45E-31  1.01E-28  0.00E+00  0.00E+00  1.92E-07  5.60E-05  8.41E-03  0.00000
   1710.    5.848  2.12E-07  6.19E-05  1.03E-30  3.02E-28  0.00E+00  0.00E+00  2.12E-07  6.19E-05  8.42E-03  0.00000
   1712.    5.841  2.13E-07  6.24E-05  3.45E-31  1.01E-28  0.00E+00  0.00E+00  2.13E-07  6.24E-05  8.42E-03  0.00000
   1714.    5.834  1.65E-07  4.84E-05  2.03E-34  5.96E-32  0.00E+00  0.00E+00  1.65E-07  4.84E-05  8.42E-03  0.00000
   1716.    5.828  1.24E-07  3.64E-05  2.80E-45  8.25E-43  0.00E+00  0.00E+00  1.24E-07  3.64E-05  8.42E-03  0.00000
   1718.    5.821  1.19E-07  3.51E-05  2.80E-45  8.27E-43  0.00E+00  0.00E+00  1.19E-07  3.51E-05  8.42E-03  0.00000
   1720.    5.814  1.81E-07  5.37E-05  1.31E-29  3.87E-27  0.00E+00  0.00E+00  1.81E-07  5.37E-05  8.42E-03  0.00000
   1722.    5.807  2.24E-07  6.63E-05  7.74E-26  2.29E-23  0.00E+00  0.00E+00  2.24E-07  6.63E-05  8.42E-03  0.00000
   1724.    5.800  2.45E-07  7.29E-05  1.89E-21  5.62E-19  0.00E+00  0.00E+00  2.45E-07  7.29E-05  8.42E-03  0.00000
   1726.    5.794  2.70E-07  8.05E-05  3.42E-21  1.02E-18  0.00E+00  0.00E+00  2.70E-07  8.05E-05  8.42E-03  0.00000
   1728.    5.787  2.44E-07  7.29E-05  8.13E-22  2.43E-19  0.00E+00  0.00E+00  2.44E-07  7.29E-05  8.42E-03  0.00000
   1730.    5.780  1.81E-07  5.42E-05  4.70E-24  1.41E-21  0.00E+00  0.00E+00  1.81E-07  5.42E-05  8.42E-03  0.00000
   1732.    5.774  1.41E-07  4.22E-05  3.89E-32  1.17E-29  0.00E+00  0.00E+00  1.41E-07  4.22E-05  8.42E-03  0.00000
   1734.    5.767  1.10E-07  3.30E-05  0.00E+00  0.00E+00  0.00E+00  0.00E+00  1.10E-07  3.30E-05  8.42E-03  0.00000
   1736.    5.760  1.45E-07  4.38E-05  0.00E+00  0.00E+00  0.00E+00  0.00E+00  1.45E-07  4.38E-05  8.42E-03  0.00000
   1738.    5.754  1.51E-07  4.56E-05  4.75E-25  1.43E-22  0.00E+00  0.00E+00  1.51E-07  4.56E-05  8.42E-03  0.00000
   1740.    5.747  1.37E-07  4.14E-05  1.42E-24  4.31E-22  0.00E+00  0.00E+00  1.37E-07  4.14E-05  8.42E-03  0.00000
   1742.    5.741  1.66E-07  5.05E-05  4.75E-25  1.44E-22  0.00E+00  0.00E+00  1.66E-07  5.05E-05  8.42E-03  0.00000
   1744.    5.734  1.59E-07  4.84E-05  2.33E-32  7.09E-30  0.00E+00  0.00E+00  1.59E-07  4.84E-05  8.42E-03  0.00000
   1746.    5.727  1.56E-07  4.76E-05  6.98E-32  2.13E-29  0.00E+00  0.00E+00  1.56E-07  4.76E-05  8.42E-03  0.00000
   1748.    5.721  1.34E-07  4.09E-05  8.65E-30  2.64E-27  0.00E+00  0.00E+00  1.34E-07  4.09E-05  8.42E-03  0.00000
   1750.    5.714  1.34E-07  4.10E-05  3.34E-28  1.02E-25  0.00E+00  0.00E+00  1.34E-07  4.10E-05  8.42E-03  0.00000
   1752.    5.708  1.71E-07  5.25E-05  5.64E-22  1.73E-19  0.00E+00  0.00E+00  1.71E-07  5.25E-05  8.42E-03  0.00000
   1754.    5.701  2.30E-07  7.07E-05  1.87E-21  5.75E-19  0.00E+00  0.00E+00  2.30E-07  7.07E-05  8.42E-03  0.00000
   1756.    5.695  1.99E-07  6.12E-05  7.83E-19  2.41E-16  0.00E+00  0.00E+00  1.99E-07  6.12E-05  8.42E-03  0.00000
   1758.    5.688  1.94E-07  5.98E-05  7.82E-19  2.42E-16  0.00E+00  0.00E+00  1.94E-07  5.98E-05  8.42E-03  0.00000
   1760.    5.682  1.89E-07  5.85E-05  8.25E-18  2.56E-15  0.00E+00  0.00E+00  1.89E-07  5.85E-05  8.42E-03  0.00000
   1762.    5.675  1.55E-07  4.81E-05  2.47E-17  7.68E-15  0.00E+00  0.00E+00  1.55E-07  4.81E-05  8.42E-03  0.00000
   1764.    5.669  2.17E-07  6.76E-05  8.55E-18  2.66E-15  0.00E+00  0.00E+00  2.17E-07  6.76E-05  8.42E-03  0.00000
   1766.    5.663  2.38E-07  7.42E-05  7.05E-19  2.20E-16  0.00E+00  0.00E+00  2.38E-07  7.42E-05  8.43E-03  0.00000
   1768.    5.656  1.74E-07  5.45E-05  1.99E-19  6.23E-17  0.00E+00  0.00E+00  1.74E-07  5.45E-05  8.43E-03  0.00000
   1770.    5.650  1.36E-07  4.25E-05  1.15E-26  3.60E-24  0.00E+00  0.00E+00  1.36E-07  4.25E-05  8.43E-03  0.00000
   1772.    5.643  1.00E-07  3.15E-05  5.48E-25  1.72E-22  0.00E+00  0.00E+00  1.00E-07  3.15E-05  8.43E-03  0.00000
   1774.    5.637  1.27E-07  4.01E-05  5.62E-23  1.77E-20  0.00E+00  0.00E+00  1.27E-07  4.01E-05  8.43E-03  0.00000
   1776.    5.631  1.80E-07  5.67E-05  1.01E-19  3.18E-17  0.00E+00  0.00E+00  1.80E-07  5.67E-05  8.43E-03  0.00000
   1778.    5.624  2.07E-07  6.56E-05  3.02E-19  9.54E-17  0.00E+00  0.00E+00  2.07E-07  6.56E-05  8.43E-03  0.00000
   1780.    5.618  1.66E-07  5.27E-05  1.11E-19  3.50E-17  0.00E+00  0.00E+00  1.66E-07  5.27E-05  8.43E-03  0.00000
   1782.    5.612  1.88E-07  5.98E-05  1.30E-17  4.12E-15  0.00E+00  0.00E+00  1.88E-07  5.98E-05  8.43E-03  0.00000
   1784.    5.605  2.08E-07  6.63E-05  2.24E-16  7.13E-14  0.00E+00  0.00E+00  2.08E-07  6.63E-05  8.43E-03  0.00000
   1786.    5.599  2.46E-07  7.83E-05  3.24E-14  1.03E-11  0.00E+00  0.00E+00  2.46E-07  7.83E-05  8.43E-03  0.00000
   1788.    5.593  2.58E-07  8.23E-05  3.26E-14  1.04E-11  0.00E+00  0.00E+00  2.58E-07  8.23E-05  8.43E-03  0.00000
   1790.    5.587  1.75E-07  5.59E-05  2.93E-16  9.38E-14  0.00E+00  0.00E+00  1.75E-07  5.59E-05  8.43E-03  0.00000
   1792.    5.580  1.11E-07  3.56E-05  1.40E-16  4.49E-14  0.00E+00  0.00E+00  1.11E-07  3.56E-05  8.43E-03  0.00000
   1794.    5.574  1.30E-07  4.19E-05  1.40E-16  4.50E-14  0.00E+00  0.00E+00  1.30E-07  4.19E-05  8.43E-03  0.00000
   1796.    5.568  1.65E-07  5.33E-05  1.37E-19  4.43E-17  0.00E+00  0.00E+00  1.65E-07  5.33E-05  8.43E-03  0.00000
   1798.    5.562  1.78E-07  5.76E-05  6.31E-16  2.04E-13  0.00E+00  0.00E+00  1.78E-07  5.76E-05  8.43E-03  0.00000
   1800.    5.556  1.39E-07  4.50E-05  1.89E-15  6.13E-13  0.00E+00  0.00E+00  1.39E-07  4.50E-05  8.43E-03  0.00000
  iv         1805
1                                             RADIANCE(WATTS/CM2-STER-XXX)
0  FREQ   WAVLEN    PATH THERMAL      SURFACE EMISSION    SURFACE REFLECTED     TOTAL RADIANCE   INTEGRAL    TOTAL
  (CM-1) (MICRN)    (CM-1)   (MICRN)    (CM-1)   (MICRN)    (CM-1)   (MICRN)    (CM-1)   (MICRN)    (CM-1)   TRANS

   1802.    5.549  1.76E-07  5.73E-05  2.16E-13  7.02E-11  0.00E+00  0.00E+00  1.76E-07  5.73E-05  8.43E-03  0.00000
   1804.    5.543  2.52E-07  8.19E-05  9.80E-13  3.19E-10  0.00E+00  0.00E+00  2.52E-07  8.19E-05  8.43E-03  0.00000
   1806.    5.537  2.66E-07  8.67E-05  8.18E-13  2.67E-10  0.00E+00  0.00E+00  2.66E-07  8.67E-05  8.43E-03  0.00000
   1808.    5.531  2.34E-07  7.64E-05  1.79E-13  5.86E-11  0.00E+00  0.00E+00  2.34E-07  7.64E-05  8.43E-03  0.00000
   1810.    5.525  1.74E-07  5.70E-05  1.30E-13  4.25E-11  0.00E+00  0.00E+00  1.74E-07  5.70E-05  8.43E-03  0.00000
   1812.    5.519  1.94E-07  6.39E-05  1.91E-11  6.26E-09  0.00E+00  0.00E+00  1.95E-07  6.39E-05  8.43E-03  0.00002
   1814.    5.513  3.10E-07  1.02E-04  2.14E-10  7.04E-08  0.00E+00  0.00E+00  3.10E-07  1.02E-04  8.43E-03  0.00026
   1816.    5.507  3.18E-07  1.05E-04  2.72E-10  8.96E-08  0.00E+00  0.00E+00  3.18E-07  1.05E-04  8.43E-03  0.00032
   1818.    5.501  3.25E-07  1.07E-04  5.82E-10  1.92E-07  0.00E+00  0.00E+00  3.26E-07  1.08E-04  8.44E-03  0.00070
   1820.    5.495  3.37E-07  1.12E-04  7.30E-10  2.42E-07  0.00E+00  0.00E+00  3.38E-07  1.12E-04  8.44E-03  0.00088
   1822.    5.488  2.60E-07  8.64E-05  1.13E-10  3.75E-08  0.00E+00  0.00E+00  2.61E-07  8.65E-05  8.44E-03  0.00014
   1824.    5.482  1.73E-07  5.75E-05  3.84E-14  1.28E-11  0.00E+00  0.00E+00  1.73E-07  5.75E-05  8.44E-03  0.00000
   1826.    5.476  1.50E-07  4.99E-05  4.11E-15  1.37E-12  0.00E+00  0.00E+00  1.50E-07  4.99E-05  8.44E-03  0.00000
   1828.    5.470  1.51E-07  5.03E-05  3.01E-20  1.01E-17  0.00E+00  0.00E+00  1.51E-07  5.03E-05  8.44E-03  0.00000
   1830.    5.464  1.11E-07  3.71E-05  1.34E-20  4.50E-18  0.00E+00  0.00E+00  1.11E-07  3.71E-05  8.44E-03  0.00000
   1832.    5.459  1.80E-07  6.06E-05  5.86E-13  1.97E-10  0.00E+00  0.00E+00  1.80E-07  6.06E-05  8.44E-03  0.00000
   1834.    5.453  2.46E-07  8.27E-05  2.64E-12  8.88E-10  0.00E+00  0.00E+00  2.46E-07  8.27E-05  8.44E-03  0.00000
   1836.    5.447  2.15E-07  7.24E-05  1.74E-12  5.88E-10  0.00E+00  0.00E+00  2.15E-07  7.24E-05  8.44E-03  0.00000
   1838.    5.441  2.13E-07  7.20E-05  3.33E-12  1.12E-09  0.00E+00  0.00E+00  2.13E-07  7.20E-05  8.44E-03  0.00000
   1840.    5.435  2.52E-07  8.54E-05  6.79E-12  2.30E-09  0.00E+00  0.00E+00  2.52E-07  8.54E-05  8.44E-03  0.00001
   1842.    5.429  1.78E-07  6.04E-05  1.88E-12  6.38E-10  0.00E+00  0.00E+00  1.78E-07  6.04E-05  8.44E-03  0.00000
   1844.    5.423  1.00E-07  3.40E-05  1.07E-15  3.64E-13  0.00E+00  0.00E+00  1.00E-07  3.40E-05  8.44E-03  0.00000
   1846.    5.417  1.24E-07  4.23E-05  1.05E-14  3.59E-12  0.00E+00  0.00E+00  1.24E-07  4.23E-05  8.44E-03  0.00000
   1848.    5.411  1.85E-07  6.32E-05  4.35E-11  1.48E-08  0.00E+00  0.00E+00  1.85E-07  6.32E-05  8.44E-03  0.00006
   1850.    5.405  2.82E-07  9.64E-05  9.14E-10  3.13E-07  0.00E+00  0.00E+00  2.83E-07  9.67E-05  8.44E-03  0.00123
   1852.    5.400  3.23E-07  1.11E-04  3.54E-09  1.22E-06  0.00E+00  0.00E+00  3.27E-07  1.12E-04  8.44E-03  0.00480
   1854.    5.394  3.48E-07  1.20E-04  1.05E-08  3.61E-06  0.00E+00  0.00E+00  3.59E-07  1.23E-04  8.44E-03  0.01432
   1856.    5.388  3.46E-07  1.19E-04  1.17E-08  4.03E-06  0.00E+00  0.00E+00  3.58E-07  1.23E-04  8.44E-03  0.01601
   1858.    5.382  2.88E-07  9.95E-05  4.01E-09  1.39E-06  0.00E+00  0.00E+00  2.92E-07  1.01E-04  8.44E-03  0.00551
   1860.    5.376  2.68E-07  9.27E-05  9.77E-10  3.38E-07  0.00E+00  0.00E+00  2.69E-07  9.30E-05  8.45E-03  0.00136
   1862.    5.371  2.97E-07  1.03E-04  1.93E-09  6.70E-07  0.00E+00  0.00E+00  2.99E-07  1.04E-04  8.45E-03  0.00270
   1864.    5.365  2.64E-07  9.18E-05  1.04E-09  3.63E-07  0.00E+00  0.00E+00  2.65E-07  9.22E-05  8.45E-03  0.00146
   1866.    5.359  1.57E-07  5.47E-05  3.23E-11  1.12E-08  0.00E+00  0.00E+00  1.57E-07  5.47E-05  8.45E-03  0.00005
   1868.    5.353  8.99E-08  3.14E-05  1.09E-15  3.79E-13  0.00E+00  0.00E+00  8.99E-08  3.14E-05  8.45E-03  0.00000
   1870.    5.348  1.21E-07  4.24E-05  3.27E-12  1.14E-09  0.00E+00  0.00E+00  1.21E-07  4.24E-05  8.45E-03  0.00000
   1872.    5.342  2.44E-07  8.55E-05  1.81E-09  6.34E-07  0.00E+00  0.00E+00  2.46E-07  8.62E-05  8.45E-03  0.00263
   1874.    5.336  3.39E-07  1.19E-04  1.39E-08  4.89E-06  0.00E+00  0.00E+00  3.52E-07  1.24E-04  8.45E-03  0.02031
   1876.    5.330  3.50E-07  1.23E-04  2.88E-08  1.01E-05  0.00E+00  0.00E+00  3.79E-07  1.33E-04  8.45E-03  0.04216
   1878.    5.325  3.37E-07  1.19E-04  3.44E-08  1.21E-05  0.00E+00  0.00E+00  3.71E-07  1.31E-04  8.45E-03  0.05076
   1880.    5.319  3.37E-07  1.19E-04  4.41E-08  1.56E-05  0.00E+00  0.00E+00  3.82E-07  1.35E-04  8.45E-03  0.06555
   1882.    5.313  3.41E-07  1.21E-04  5.40E-08  1.91E-05  0.00E+00  0.00E+00  3.95E-07  1.40E-04  8.45E-03  0.08070
   1884.    5.308  2.65E-07  9.40E-05  1.74E-08  6.17E-06  0.00E+00  0.00E+00  2.82E-07  1.00E-04  8.45E-03  0.02601
   1886.    5.302  2.54E-07  9.03E-05  1.34E-09  4.77E-07  0.00E+00  0.00E+00  2.55E-07  9.08E-05  8.45E-03  0.00203
   1888.    5.297  2.19E-07  7.79E-05  9.59E-10  3.42E-07  0.00E+00  0.00E+00  2.20E-07  7.83E-05  8.45E-03  0.00146
   1890.    5.291  1.52E-07  5.44E-05  1.15E-10  4.12E-08  0.00E+00  0.00E+00  1.52E-07  5.44E-05  8.45E-03  0.00018
   1892.    5.285  2.30E-07  8.22E-05  4.70E-10  1.68E-07  0.00E+00  0.00E+00  2.30E-07  8.23E-05  8.45E-03  0.00073
   1894.    5.280  2.09E-07  7.49E-05  3.67E-10  1.32E-07  0.00E+00  0.00E+00  2.09E-07  7.51E-05  8.45E-03  0.00057
   1896.    5.274  2.07E-07  7.43E-05  4.30E-09  1.54E-06  0.00E+00  0.00E+00  2.11E-07  7.59E-05  8.45E-03  0.00677
   1898.    5.269  3.00E-07  1.08E-04  3.93E-08  1.41E-05  0.00E+00  0.00E+00  3.39E-07  1.22E-04  8.46E-03  0.06215
   1900.    5.263  3.18E-07  1.15E-04  7.75E-08  2.80E-05  0.00E+00  0.00E+00  3.96E-07  1.43E-04  8.46E-03  0.12316
  iv         1905
1                                             RADIANCE(WATTS/CM2-STER-XXX)
0  FREQ   WAVLEN    PATH THERMAL      SURFACE EMISSION    SURFACE REFLECTED     TOTAL RADIANCE   INTEGRAL    TOTAL
  (CM-1) (MICRN)    (CM-1)   (MICRN)    (CM-1)   (MICRN)    (CM-1)   (MICRN)    (CM-1)   (MICRN)    (CM-1)   TRANS

   1902.    5.258  2.92E-07  1.06E-04  4.57E-08  1.66E-05  0.00E+00  0.00E+00  3.38E-07  1.22E-04  8.46E-03  0.07297
   1904.    5.252  2.52E-07  9.14E-05  1.31E-08  4.76E-06  0.00E+00  0.00E+00  2.65E-07  9.61E-05  8.46E-03  0.02108
   1906.    5.247  2.36E-07  8.58E-05  6.03E-09  2.19E-06  0.00E+00  0.00E+00  2.42E-07  8.80E-05  8.46E-03  0.00976
   1908.    5.241  1.61E-07  5.85E-05  1.86E-09  6.78E-07  0.00E+00  0.00E+00  1.63E-07  5.92E-05  8.46E-03  0.00302
   1910.    5.236  1.64E-07  5.97E-05  1.65E-09  6.01E-07  0.00E+00  0.00E+00  1.65E-07  6.03E-05  8.46E-03  0.00272
   1912.    5.230  2.55E-07  9.33E-05  1.06E-08  3.87E-06  0.00E+00  0.00E+00  2.66E-07  9.71E-05  8.46E-03  0.01756
   1914.    5.225  2.74E-07  1.00E-04  1.19E-08  4.38E-06  0.00E+00  0.00E+00  2.86E-07  1.05E-04  8.46E-03  0.01986
   1916.    5.219  2.11E-07  7.74E-05  2.95E-09  1.08E-06  0.00E+00  0.00E+00  2.14E-07  7.85E-05  8.46E-03  0.00492
   1918.    5.214  1.22E-07  4.47E-05  7.32E-11  2.69E-08  0.00E+00  0.00E+00  1.22E-07  4.48E-05  8.46E-03  0.00012
   1920.    5.208  1.48E-07  5.47E-05  3.65E-12  1.35E-09  0.00E+00  0.00E+00  1.48E-07  5.47E-05  8.46E-03  0.00001
   1922.    5.203  1.38E-07  5.10E-05  3.33E-12  1.23E-09  0.00E+00  0.00E+00  1.38E-07  5.10E-05  8.46E-03  0.00001
   1924.    5.198  1.63E-07  6.05E-05  3.44E-09  1.27E-06  0.00E+00  0.00E+00  1.67E-07  6.18E-05  8.46E-03  0.00596
   1926.    5.192  2.66E-07  9.85E-05  3.17E-08  1.17E-05  0.00E+00  0.00E+00  2.97E-07  1.10E-04  8.46E-03  0.05514
   1928.    5.187  2.83E-07  1.05E-04  9.47E-08  3.52E-05  0.00E+00  0.00E+00  3.77E-07  1.40E-04  8.46E-03  0.16570
   1930.    5.181  2.65E-07  9.86E-05  1.40E-07  5.20E-05  0.00E+00  0.00E+00  4.04E-07  1.51E-04  8.46E-03  0.24550
   1932.    5.176  2.28E-07  8.50E-05  7.11E-08  2.65E-05  0.00E+00  0.00E+00  2.99E-07  1.12E-04  8.46E-03  0.12549
   1934.    5.171  2.26E-07  8.45E-05  5.34E-08  2.00E-05  0.00E+00  0.00E+00  2.79E-07  1.04E-04  8.46E-03  0.09558
   1936.    5.165  2.63E-07  9.86E-05  1.10E-07  4.11E-05  0.00E+00  0.00E+00  3.73E-07  1.40E-04  8.46E-03  0.19683
   1938.    5.160  2.78E-07  1.04E-04  7.89E-08  2.96E-05  0.00E+00  0.00E+00  3.57E-07  1.34E-04  8.47E-03  0.14243
   1940.    5.155  2.50E-07  9.42E-05  2.69E-08  1.01E-05  0.00E+00  0.00E+00  2.77E-07  1.04E-04  8.47E-03  0.04884
   1942.    5.149  1.49E-07  5.64E-05  2.11E-09  7.94E-07  0.00E+00  0.00E+00  1.52E-07  5.72E-05  8.47E-03  0.00383
   1944.    5.144  1.26E-07  4.76E-05  3.77E-12  1.43E-09  0.00E+00  0.00E+00  1.26E-07  4.76E-05  8.47E-03  0.00001
   1946.    5.139  1.62E-07  6.15E-05  7.19E-09  2.72E-06  0.00E+00  0.00E+00  1.70E-07  6.43E-05  8.47E-03  0.01346
   1948.    5.133  2.40E-07  9.11E-05  4.42E-08  1.68E-05  0.00E+00  0.00E+00  2.84E-07  1.08E-04  8.47E-03  0.08302
   1950.    5.128  2.56E-07  9.73E-05  1.02E-07  3.90E-05  0.00E+00  0.00E+00  3.58E-07  1.36E-04  8.47E-03  0.19330
   1952.    5.123  2.37E-07  9.03E-05  1.41E-07  5.39E-05  0.00E+00  0.00E+00  3.78E-07  1.44E-04  8.47E-03  0.26813
   1954.    5.118  2.24E-07  8.55E-05  6.37E-08  2.43E-05  0.00E+00  0.00E+00  2.88E-07  1.10E-04  8.47E-03  0.12118
   1956.    5.112  2.25E-07  8.61E-05  3.36E-08  1.29E-05  0.00E+00  0.00E+00  2.59E-07  9.89E-05  8.47E-03  0.06493
   1958.    5.107  2.36E-07  9.04E-05  1.09E-07  4.19E-05  0.00E+00  0.00E+00  3.45E-07  1.32E-04  8.47E-03  0.21189
   1960.    5.102  2.21E-07  8.50E-05  1.03E-07  3.95E-05  0.00E+00  0.00E+00  3.24E-07  1.24E-04  8.47E-03  0.20018
   1962.    5.097  2.33E-07  8.97E-05  7.19E-08  2.77E-05  0.00E+00  0.00E+00  3.05E-07  1.17E-04  8.47E-03  0.14138
   1964.    5.092  2.36E-07  9.09E-05  8.49E-08  3.28E-05  0.00E+00  0.00E+00  3.20E-07  1.24E-04  8.47E-03  0.16767
   1966.    5.086  1.68E-07  6.49E-05  1.94E-08  7.51E-06  0.00E+00  0.00E+00  1.87E-07  7.24E-05  8.47E-03  0.03845
   1968.    5.081  1.73E-07  6.70E-05  2.17E-08  8.42E-06  0.00E+00  0.00E+00  1.95E-07  7.54E-05  8.47E-03  0.04383
   1970.    5.076  2.15E-07  8.36E-05  1.27E-07  4.92E-05  0.00E+00  0.00E+00  3.42E-07  1.33E-04  8.47E-03  0.25666
   1972.    5.071  1.68E-07  6.53E-05  2.44E-07  9.49E-05  0.00E+00  0.00E+00  4.12E-07  1.60E-04  8.48E-03  0.49618
   1974.    5.066  1.49E-07  5.82E-05  2.58E-07  1.01E-04  0.00E+00  0.00E+00  4.08E-07  1.59E-04  8.48E-03  0.52857
   1976.    5.061  1.70E-07  6.64E-05  1.96E-07  7.65E-05  0.00E+00  0.00E+00  3.66E-07  1.43E-04  8.48E-03  0.40387
   1978.    5.056  1.50E-07  5.86E-05  2.48E-07  9.70E-05  0.00E+00  0.00E+00  3.98E-07  1.56E-04  8.48E-03  0.51486
   1980.    5.051  1.36E-07  5.31E-05  2.75E-07  1.08E-04  0.00E+00  0.00E+00  4.11E-07  1.61E-04  8.48E-03  0.57542
   1982.    5.045  1.50E-07  5.90E-05  2.49E-07  9.78E-05  0.00E+00  0.00E+00  3.99E-07  1.57E-04  8.48E-03  0.52396
   1984.    5.040  1.65E-07  6.48E-05  2.27E-07  8.92E-05  0.00E+00  0.00E+00  3.91E-07  1.54E-04  8.48E-03  0.47997
   1986.    5.035  1.95E-07  7.70E-05  1.25E-07  4.93E-05  0.00E+00  0.00E+00  3.20E-07  1.26E-04  8.48E-03  0.26621
   1988.    5.030  1.87E-07  7.38E-05  2.44E-08  9.63E-06  0.00E+00  0.00E+00  2.11E-07  8.34E-05  8.48E-03  0.05209
   1990.    5.025  1.77E-07  7.01E-05  5.85E-09  2.32E-06  0.00E+00  0.00E+00  1.83E-07  7.24E-05  8.48E-03  0.01266
   1992.    5.020  1.33E-07  5.27E-05  3.28E-09  1.30E-06  0.00E+00  0.00E+00  1.36E-07  5.40E-05  8.48E-03  0.00714
   1994.    5.015  1.79E-07  7.10E-05  5.12E-08  2.04E-05  0.00E+00  0.00E+00  2.30E-07  9.14E-05  8.48E-03  0.11290
   1996.    5.010  1.99E-07  7.93E-05  1.38E-07  5.48E-05  0.00E+00  0.00E+00  3.36E-07  1.34E-04  8.48E-03  0.30399
   1998.    5.005  1.92E-07  7.65E-05  9.84E-08  3.93E-05  0.00E+00  0.00E+00  2.90E-07  1.16E-04  8.48E-03  0.21850
   2000.    5.000  1.63E-07  6.53E-05  1.49E-07  5.98E-05  0.00E+00  0.00E+00  3.13E-07  1.25E-04  8.48E-03  0.33545
  iv         2005
1                                             RADIANCE(WATTS/CM2-STER-XXX)
0  FREQ   WAVLEN    PATH THERMAL      SURFACE EMISSION    SURFACE REFLECTED     TOTAL RADIANCE   INTEGRAL    TOTAL
  (CM-1) (MICRN)    (CM-1)   (MICRN)    (CM-1)   (MICRN)    (CM-1)   (MICRN)    (CM-1)   (MICRN)    (CM-1)   TRANS

   2002.    4.995  1.20E-07  4.80E-05  2.67E-07  1.07E-04  0.00E+00  0.00E+00  3.87E-07  1.55E-04  8.48E-03  0.60266
   2004.    4.990  1.06E-07  4.26E-05  2.85E-07  1.15E-04  0.00E+00  0.00E+00  3.91E-07  1.57E-04  8.49E-03  0.64782
   2006.    4.985  1.49E-07  5.98E-05  1.96E-07  7.87E-05  0.00E+00  0.00E+00  3.44E-07  1.39E-04  8.49E-03  0.44663
   2008.    4.980  1.82E-07  7.33E-05  8.49E-08  3.42E-05  0.00E+00  0.00E+00  2.67E-07  1.08E-04  8.49E-03  0.19548
   2010.    4.975  1.56E-07  6.32E-05  1.55E-07  6.25E-05  0.00E+00  0.00E+00  3.11E-07  1.26E-04  8.49E-03  0.35966
   2012.    4.970  1.25E-07  5.07E-05  2.42E-07  9.79E-05  0.00E+00  0.00E+00  3.67E-07  1.49E-04  8.49E-03  0.56513
   2014.    4.965  1.50E-07  6.09E-05  1.79E-07  7.25E-05  0.00E+00  0.00E+00  3.29E-07  1.33E-04  8.49E-03  0.41958
   2016.    4.960  1.52E-07  6.17E-05  4.72E-08  1.92E-05  0.00E+00  0.00E+00  1.99E-07  8.09E-05  8.49E-03  0.11120
   2018.    4.955  1.40E-07  5.69E-05  3.04E-09  1.24E-06  0.00E+00  0.00E+00  1.43E-07  5.81E-05  8.49E-03  0.00730
   2020.    4.950  1.72E-07  7.00E-05  6.67E-08  2.72E-05  0.00E+00  0.00E+00  2.38E-07  9.73E-05  8.49E-03  0.16103
   2022.    4.946  1.69E-07  6.90E-05  1.25E-07  5.10E-05  0.00E+00  0.00E+00  2.93E-07  1.20E-04  8.49E-03  0.30153
   2024.    4.941  1.65E-07  6.76E-05  1.32E-07  5.40E-05  0.00E+00  0.00E+00  2.97E-07  1.22E-04  8.49E-03  0.32163
   2026.    4.936  1.50E-07  6.17E-05  1.40E-07  5.75E-05  0.00E+00  0.00E+00  2.90E-07  1.19E-04  8.49E-03  0.34372
   2028.    4.931  1.18E-07  4.86E-05  1.87E-07  7.67E-05  0.00E+00  0.00E+00  3.05E-07  1.25E-04  8.49E-03  0.46188
   2030.    4.926  7.57E-08  3.12E-05  2.84E-07  1.17E-04  0.00E+00  0.00E+00  3.60E-07  1.48E-04  8.49E-03  0.70717
   2032.    4.921  7.13E-08  2.95E-05  2.85E-07  1.18E-04  0.00E+00  0.00E+00  3.56E-07  1.47E-04  8.49E-03  0.71396
   2034.    4.916  9.91E-08  4.10E-05  2.34E-07  9.68E-05  0.00E+00  0.00E+00  3.33E-07  1.38E-04  8.49E-03  0.59046
   2036.    4.912  1.02E-07  4.24E-05  2.09E-07  8.68E-05  0.00E+00  0.00E+00  3.12E-07  1.29E-04  8.49E-03  0.53215
   2038.    4.907  1.25E-07  5.20E-05  1.52E-07  6.29E-05  0.00E+00  0.00E+00  2.77E-07  1.15E-04  8.50E-03  0.38783
   2040.    4.902  1.39E-07  5.80E-05  9.09E-08  3.78E-05  0.00E+00  0.00E+00  2.30E-07  9.58E-05  8.50E-03  0.23392
   2042.    4.897  1.55E-07  6.47E-05  2.83E-08  1.18E-05  0.00E+00  0.00E+00  1.83E-07  7.65E-05  8.50E-03  0.07343
   2044.    4.892  1.37E-07  5.71E-05  8.74E-08  3.65E-05  0.00E+00  0.00E+00  2.24E-07  9.36E-05  8.50E-03  0.22923
   2046.    4.888  1.17E-07  4.91E-05  1.40E-07  5.85E-05  0.00E+00  0.00E+00  2.57E-07  1.08E-04  8.50E-03  0.36834
   2048.    4.883  9.88E-08  4.15E-05  1.57E-07  6.57E-05  0.00E+00  0.00E+00  2.55E-07  1.07E-04  8.50E-03  0.41579
   2050.    4.878  7.65E-08  3.22E-05  1.81E-07  7.62E-05  0.00E+00  0.00E+00  2.58E-07  1.08E-04  8.50E-03  0.48437
   2052.    4.873  8.01E-08  3.37E-05  1.63E-07  6.86E-05  0.00E+00  0.00E+00  2.43E-07  1.02E-04  8.50E-03  0.43860
   2054.    4.869  8.07E-08  3.41E-05  1.57E-07  6.63E-05  0.00E+00  0.00E+00  2.38E-07  1.00E-04  8.50E-03  0.42601
   2056.    4.864  7.34E-08  3.10E-05  1.67E-07  7.05E-05  0.00E+00  0.00E+00  2.40E-07  1.02E-04  8.50E-03  0.45551
   2058.    4.859  8.24E-08  3.49E-05  1.41E-07  5.97E-05  0.00E+00  0.00E+00  2.23E-07  9.46E-05  8.50E-03  0.38729
   2060.    4.854  9.96E-08  4.23E-05  8.97E-08  3.81E-05  0.00E+00  0.00E+00  1.89E-07  8.04E-05  8.50E-03  0.24835
   2062.    4.850  1.01E-07  4.30E-05  8.97E-08  3.81E-05  0.00E+00  0.00E+00  1.91E-07  8.12E-05  8.50E-03  0.25022
   2064.    4.845  1.03E-07  4.37E-05  3.97E-08  1.69E-05  0.00E+00  0.00E+00  1.42E-07  6.06E-05  8.50E-03  0.11091
   2066.    4.840  1.00E-07  4.29E-05  4.91E-08  2.10E-05  0.00E+00  0.00E+00  1.50E-07  6.38E-05  8.50E-03  0.13954
   2068.    4.836  8.43E-08  3.61E-05  1.25E-07  5.34E-05  0.00E+00  0.00E+00  2.09E-07  8.95E-05  8.50E-03  0.35639
   2070.    4.831  6.54E-08  2.80E-05  1.61E-07  6.89E-05  0.00E+00  0.00E+00  2.26E-07  9.69E-05  8.50E-03  0.46158
   2072.    4.826  7.80E-08  3.35E-05  1.40E-07  6.03E-05  0.00E+00  0.00E+00  2.18E-07  9.38E-05  8.50E-03  0.40560
   2074.    4.822  9.51E-08  4.09E-05  1.12E-07  4.82E-05  0.00E+00  0.00E+00  2.07E-07  8.91E-05  8.50E-03  0.32654
   2076.    4.817  7.00E-08  3.02E-05  8.41E-08  3.62E-05  0.00E+00  0.00E+00  1.54E-07  6.64E-05  8.50E-03  0.24617
   2078.    4.812  5.71E-08  2.47E-05  4.05E-08  1.75E-05  0.00E+00  0.00E+00  9.77E-08  4.22E-05  8.50E-03  0.11990
   2080.    4.808  7.38E-08  3.19E-05  1.04E-07  4.49E-05  0.00E+00  0.00E+00  1.78E-07  7.68E-05  8.50E-03  0.30941
   2082.    4.803  6.74E-08  2.92E-05  1.51E-07  6.53E-05  0.00E+00  0.00E+00  2.18E-07  9.45E-05  8.50E-03  0.45147
   2084.    4.798  5.24E-08  2.27E-05  1.82E-07  7.91E-05  0.00E+00  0.00E+00  2.34E-07  1.02E-04  8.50E-03  0.54947
   2086.    4.794  6.75E-08  2.94E-05  1.57E-07  6.82E-05  0.00E+00  0.00E+00  2.24E-07  9.76E-05  8.51E-03  0.47598
   2088.    4.789  9.09E-08  3.96E-05  1.12E-07  4.87E-05  0.00E+00  0.00E+00  2.03E-07  8.84E-05  8.51E-03  0.34187
   2090.    4.785  9.93E-08  4.34E-05  7.89E-08  3.45E-05  0.00E+00  0.00E+00  1.78E-07  7.78E-05  8.51E-03  0.24318
   2092.    4.780  8.61E-08  3.77E-05  1.02E-07  4.48E-05  0.00E+00  0.00E+00  1.88E-07  8.24E-05  8.51E-03  0.31788
   2094.    4.776  6.54E-08  2.87E-05  1.31E-07  5.76E-05  0.00E+00  0.00E+00  1.97E-07  8.63E-05  8.51E-03  0.41117
   2096.    4.771  5.55E-08  2.44E-05  1.70E-07  7.47E-05  0.00E+00  0.00E+00  2.25E-07  9.90E-05  8.51E-03  0.53556
   2098.    4.766  5.18E-08  2.28E-05  1.78E-07  7.85E-05  0.00E+00  0.00E+00  2.30E-07  1.01E-04  8.51E-03  0.56587
   2100.    4.762  5.33E-08  2.35E-05  1.73E-07  7.64E-05  0.00E+00  0.00E+00  2.27E-07  9.99E-05  8.51E-03  0.55351
  iv         2105
1                                             RADIANCE(WATTS/CM2-STER-XXX)
0  FREQ   WAVLEN    PATH THERMAL      SURFACE EMISSION    SURFACE REFLECTED     TOTAL RADIANCE   INTEGRAL    TOTAL
  (CM-1) (MICRN)    (CM-1)   (MICRN)    (CM-1)   (MICRN)    (CM-1)   (MICRN)    (CM-1)   (MICRN)    (CM-1)   TRANS

   2102.    4.757  3.71E-08  1.64E-05  2.02E-07  8.92E-05  0.00E+00  0.00E+00  2.39E-07  1.06E-04  8.51E-03  0.64995
   2104.    4.753  3.32E-08  1.47E-05  2.05E-07  9.09E-05  0.00E+00  0.00E+00  2.39E-07  1.06E-04  8.51E-03  0.66582
   2106.    4.748  5.35E-08  2.38E-05  1.62E-07  7.17E-05  0.00E+00  0.00E+00  2.15E-07  9.55E-05  8.51E-03  0.52774
   2108.    4.744  4.91E-08  2.18E-05  1.64E-07  7.29E-05  0.00E+00  0.00E+00  2.13E-07  9.47E-05  8.51E-03  0.54028
   2110.    4.739  3.03E-08  1.35E-05  2.08E-07  9.27E-05  0.00E+00  0.00E+00  2.39E-07  1.06E-04  8.51E-03  0.69047
   2112.    4.735  4.03E-08  1.80E-05  2.11E-07  9.41E-05  0.00E+00  0.00E+00  2.51E-07  1.12E-04  8.51E-03  0.70384
   2114.    4.730  8.35E-08  3.73E-05  1.16E-07  5.17E-05  0.00E+00  0.00E+00  1.99E-07  8.90E-05  8.51E-03  0.38787
   2116.    4.726  7.55E-08  3.38E-05  1.12E-07  5.02E-05  0.00E+00  0.00E+00  1.88E-07  8.40E-05  8.51E-03  0.38043
   2118.    4.721  3.21E-08  1.44E-05  1.82E-07  8.15E-05  0.00E+00  0.00E+00  2.14E-07  9.59E-05  8.51E-03  0.61978
   2120.    4.717  3.24E-08  1.45E-05  1.72E-07  7.74E-05  0.00E+00  0.00E+00  2.05E-07  9.19E-05  8.51E-03  0.59108
   2122.    4.713  4.46E-08  2.01E-05  1.52E-07  6.86E-05  0.00E+00  0.00E+00  1.97E-07  8.87E-05  8.51E-03  0.52720
   2124.    4.708  4.90E-08  2.21E-05  1.46E-07  6.57E-05  0.00E+00  0.00E+00  1.95E-07  8.78E-05  8.51E-03  0.50714
   2126.    4.704  3.22E-08  1.46E-05  1.80E-07  8.13E-05  0.00E+00  0.00E+00  2.12E-07  9.58E-05  8.51E-03  0.63153
   2128.    4.699  2.67E-08  1.21E-05  1.87E-07  8.48E-05  0.00E+00  0.00E+00  2.14E-07  9.69E-05  8.51E-03  0.66172
   2130.    4.695  3.30E-08  1.50E-05  1.80E-07  8.16E-05  0.00E+00  0.00E+00  2.13E-07  9.66E-05  8.51E-03  0.64089
   2132.    4.690  1.93E-08  8.77E-06  2.30E-07  1.05E-04  0.00E+00  0.00E+00  2.50E-07  1.13E-04  8.52E-03  0.82669
   2134.    4.686  2.58E-08  1.18E-05  2.28E-07  1.04E-04  0.00E+00  0.00E+00  2.54E-07  1.16E-04  8.52E-03  0.82449
   2136.    4.682  7.44E-08  3.39E-05  1.36E-07  6.22E-05  0.00E+00  0.00E+00  2.11E-07  9.61E-05  8.52E-03  0.49487
   2138.    4.677  9.27E-08  4.24E-05  1.08E-07  4.96E-05  0.00E+00  0.00E+00  2.01E-07  9.20E-05  8.52E-03  0.39802
   2140.    4.673  5.85E-08  2.68E-05  1.75E-07  8.01E-05  0.00E+00  0.00E+00  2.33E-07  1.07E-04  8.52E-03  0.64620
   2142.    4.669  2.52E-08  1.16E-05  2.30E-07  1.06E-04  0.00E+00  0.00E+00  2.56E-07  1.17E-04  8.52E-03  0.85675
   2144.    4.664  3.82E-08  1.76E-05  2.02E-07  9.30E-05  0.00E+00  0.00E+00  2.40E-07  1.11E-04  8.52E-03  0.75699
   2146.    4.660  5.91E-08  2.72E-05  1.67E-07  7.68E-05  0.00E+00  0.00E+00  2.26E-07  1.04E-04  8.52E-03  0.62941
   2148.    4.655  4.35E-08  2.01E-05  1.94E-07  8.96E-05  0.00E+00  0.00E+00  2.38E-07  1.10E-04  8.52E-03  0.73814
   2150.    4.651  2.45E-08  1.13E-05  2.23E-07  1.03E-04  0.00E+00  0.00E+00  2.47E-07  1.14E-04  8.52E-03  0.85186
   2152.    4.647  3.41E-08  1.58E-05  2.02E-07  9.34E-05  0.00E+00  0.00E+00  2.36E-07  1.09E-04  8.52E-03  0.77719
   2154.    4.643  3.31E-08  1.54E-05  2.01E-07  9.32E-05  0.00E+00  0.00E+00  2.34E-07  1.09E-04  8.52E-03  0.78060
   2156.    4.638  2.89E-08  1.34E-05  2.08E-07  9.68E-05  0.00E+00  0.00E+00  2.37E-07  1.10E-04  8.52E-03  0.81482
   2158.    4.634  2.44E-08  1.14E-05  2.13E-07  9.90E-05  0.00E+00  0.00E+00  2.37E-07  1.10E-04  8.52E-03  0.83812
   2160.    4.630  3.06E-08  1.43E-05  2.00E-07  9.35E-05  0.00E+00  0.00E+00  2.31E-07  1.08E-04  8.52E-03  0.79456
   2162.    4.625  5.69E-08  2.66E-05  1.52E-07  7.10E-05  0.00E+00  0.00E+00  2.09E-07  9.76E-05  8.52E-03  0.60737
   2164.    4.621  3.65E-08  1.71E-05  1.85E-07  8.67E-05  0.00E+00  0.00E+00  2.22E-07  1.04E-04  8.52E-03  0.74626
   2166.    4.617  1.77E-08  8.32E-06  2.15E-07  1.01E-04  0.00E+00  0.00E+00  2.33E-07  1.09E-04  8.52E-03  0.87173
   2168.    4.613  1.53E-08  7.18E-06  2.17E-07  1.02E-04  0.00E+00  0.00E+00  2.32E-07  1.09E-04  8.52E-03  0.88497
   2170.    4.608  2.22E-08  1.05E-05  2.02E-07  9.52E-05  0.00E+00  0.00E+00  2.24E-07  1.06E-04  8.52E-03  0.83165
   2172.    4.604  2.69E-08  1.27E-05  1.93E-07  9.12E-05  0.00E+00  0.00E+00  2.20E-07  1.04E-04  8.52E-03  0.80159
   2174.    4.600  1.79E-08  8.46E-06  2.07E-07  9.76E-05  0.00E+00  0.00E+00  2.24E-07  1.06E-04  8.52E-03  0.86278
   2176.    4.596  1.56E-08  7.37E-06  2.08E-07  9.84E-05  0.00E+00  0.00E+00  2.23E-07  1.06E-04  8.53E-03  0.87465
   2178.    4.591  1.52E-08  7.20E-06  2.06E-07  9.79E-05  0.00E+00  0.00E+00  2.22E-07  1.05E-04  8.53E-03  0.87493
   2180.    4.587  2.50E-08  1.19E-05  1.88E-07  8.95E-05  0.00E+00  0.00E+00  2.13E-07  1.01E-04  8.53E-03  0.80374
   2182.    4.583  2.48E-08  1.18E-05  1.87E-07  8.90E-05  0.00E+00  0.00E+00  2.12E-07  1.01E-04  8.53E-03  0.80365
   2184.    4.579  2.32E-08  1.11E-05  1.88E-07  8.99E-05  0.00E+00  0.00E+00  2.12E-07  1.01E-04  8.53E-03  0.81575
   2186.    4.575  3.70E-08  1.77E-05  1.64E-07  7.85E-05  0.00E+00  0.00E+00  2.01E-07  9.62E-05  8.53E-03  0.71658
   2188.    4.570  3.22E-08  1.54E-05  1.70E-07  8.13E-05  0.00E+00  0.00E+00  2.02E-07  9.68E-05  8.53E-03  0.74704
   2190.    4.566  1.99E-08  9.54E-06  1.88E-07  9.03E-05  0.00E+00  0.00E+00  2.08E-07  9.98E-05  8.53E-03  0.83350
   2192.    4.562  2.13E-08  1.02E-05  1.84E-07  8.85E-05  0.00E+00  0.00E+00  2.05E-07  9.87E-05  8.53E-03  0.82091
   2194.    4.558  2.31E-08  1.11E-05  1.79E-07  8.62E-05  0.00E+00  0.00E+00  2.02E-07  9.73E-05  8.53E-03  0.80437
   2196.    4.554  1.74E-08  8.39E-06  1.86E-07  8.96E-05  0.00E+00  0.00E+00  2.03E-07  9.80E-05  8.53E-03  0.84117
   2198.    4.550  2.17E-08  1.05E-05  1.77E-07  8.56E-05  0.00E+00  0.00E+00  1.99E-07  9.61E-05  8.53E-03  0.80718
   2200.    4.545  2.79E-08  1.35E-05  1.65E-07  7.98E-05  0.00E+00  0.00E+00  1.93E-07  9.33E-05  8.53E-03  0.75720
0INTEGRATED ABSORPTION FROM    2 TO 2200 CM-1 =   1691.59 CM-1
 AVERAGE TRANSMITTANCE =0.2304

0INTEGRATED RADIANCE =  8.530E-03 WATTS CM-2 STER-1
 MINIMUM RADIANCE    =  1.167E-09 WATTS CM-2 STER-1 (CM-1)-1 AT        2.0 CM-1
 MAXIMUM RADIANCE    =  1.215E-05 WATTS CM-2 STER-1 (CM-1)-1 AT      560.0 CM-1
 BOUNDARY TEMPERATURE =     289.26 K
 BOUNDARY EMISSIVITY =       0.971
0 CARD 5 *****    0


