*****  MODTRAN3 Version 1.3  12/1/95  *****
0 CARD 1  *****T   5    3    1    0    0    0    0    0    0    0    0    0   -1   0.000  -1.00
 co2mx co2rat ch4rat h2orat t_o3rat s_o3rat scalefreon    800.00000       2.4242425       1.0000000       1.0000000       1.0000000       1.0000000       1.0000000    
0 CARD 2  *****    0    0    0    0    0    0     0.000     0.000     0.000     0.000     0.000
0 CARD 3  *****    70.000     0.000   180.000     0.000     0.000     0.000    0
0 CARD 4  *****         2      2200         2         3
0 PROGRAM WILL COMPUTE RADIANCE                
0 ATMOSPHERIC MODEL
          TEMPERATURE =    5     SUBARCTIC   WINTER  
          WATER VAPOR =    5     SUBARCTIC   WINTER  
          OZONE       =    5     SUBARCTIC   WINTER  
                      M4 =     5 M5 =     5 M6 =     5 MDEF =     1
0 SLANT PATH TO SPACE
          H1    =     70.000 KM
          HMIN  =      0.000 KM
          ANGLE =    180.000 DEG
0 FREQUENCY RANGE
             IV1 =         2 CM-1  (   5000.00 MICROMETERS)
             IV2 =      2200 CM-1  (      4.55 MICROMETERS)
             IDV =         2 CM-1
           IFWHM =         3 CM-1
1
  ATMOSPHERIC PROFILES

   I     Z       P       T        N2       CNTMSLF MOL SCAT     N-1     O3 (UV)  O2 (UV)
        (KM)    (MB)    (K)            (MOL/CM2 KM)   (-)       (-)  (ATM CM/KM) (ATM CM/KM)

   1     0.00 1013.000  257.2  1.035E+00 6.469E+18 1.062E+00 3.053E-04 1.912E-03 4.172E+04
   2     1.00  887.800  259.1  7.833E-01 6.469E+18 9.237E-01 2.656E-04 1.913E-03 3.408E+04
   3     2.00  777.500  255.9  6.159E-01 3.971E+18 8.191E-01 2.355E-04 1.912E-03 2.874E+04
   4     3.00  679.800  252.7  4.828E-01 2.078E+18 7.252E-01 2.085E-04 2.005E-03 2.426E+04
   5     4.00  593.200  247.7  3.826E-01 7.557E+17 6.456E-01 1.857E-04 2.099E-03 2.071E+04
   6     5.00  515.800  240.9  3.059E-01 1.798E+17 5.772E-01 1.660E-04 2.192E-03 1.783E+04
   7     6.00  446.700  234.1  2.429E-01 4.317E+16 5.144E-01 1.479E-04 2.285E-03 1.533E+04
   8     7.00  385.300  227.3  1.917E-01 1.312E+16 4.570E-01 1.314E-04 3.312E-03 1.316E+04
   9     8.00  330.800  220.6  1.500E-01 5.440E+14 4.042E-01 1.163E-04 4.201E-03 1.128E+04
  10     9.00  282.900  217.2  1.132E-01 3.174E+14 3.511E-01 1.010E-04 7.369E-03 9.471E+03
  11    10.00  241.800  217.2  8.269E-02 1.047E+14 3.001E-01 8.631E-05 8.997E-03 7.829E+03
  12    11.00  206.700  217.2  6.042E-02 1.913E+13 2.565E-01 7.378E-05 8.973E-03 6.499E+03
  13    12.00  176.600  217.2  4.411E-02 5.028E+12 2.192E-01 6.304E-05 8.762E-03 5.411E+03
  14    13.00  151.000  217.2  3.225E-02 2.022E+12 1.874E-01 5.390E-05 1.217E-02 4.523E+03
  15    14.00  129.100  217.2  2.357E-02 1.511E+12 1.602E-01 4.608E-05 1.441E-02 3.792E+03
  16    15.00  110.300  217.2  1.721E-02 1.128E+12 1.369E-01 3.937E-05 1.642E-02 3.184E+03
  17    16.00   94.310  216.6  1.265E-02 8.474E+11 1.174E-01 3.376E-05 1.759E-02 2.690E+03
  18    17.00   80.580  216.0  9.285E-03 6.357E+11 1.006E-01 2.892E-05 1.910E-02 2.276E+03
  19    18.00   68.820  215.4  6.811E-03 4.764E+11 8.613E-02 2.477E-05 2.109E-02 1.928E+03
  20    19.00   58.750  214.8  4.991E-03 3.566E+11 7.373E-02 2.121E-05 2.284E-02 1.634E+03
  21    20.00   50.140  214.2  3.656E-03 2.667E+11 6.310E-02 1.815E-05 2.333E-02 1.387E+03
  22    21.00   42.770  213.6  2.675E-03 1.992E+11 5.398E-02 1.552E-05 2.158E-02 1.178E+03
  23    22.00   36.470  213.0  1.956E-03 1.487E+11 4.616E-02 1.327E-05 1.937E-02 1.001E+03
  24    23.00   31.090  212.4  1.429E-03 1.109E+11 3.946E-02 1.135E-05 1.774E-02 8.511E+02
  25    24.00   26.490  211.8  1.044E-03 8.261E+10 3.372E-02 9.697E-06 1.550E-02 7.239E+02
  26    25.00   22.560  211.2  7.613E-04 6.026E+10 2.880E-02 8.282E-06 1.352E-02 6.158E+02
  27    30.00   10.200  216.0  1.488E-04 1.178E+10 1.273E-02 3.661E-06 6.870E-03 2.687E+02
  28    35.00    4.701  222.3  2.984E-05 2.362E+09 5.701E-03 1.640E-06 3.532E-03 1.196E+02
  29    40.00    2.243  234.7  6.094E-06 4.824E+08 2.576E-03 7.410E-07 1.519E-03 5.392E+01
  30    45.00    1.113  247.0  1.355E-06 1.072E+08 1.215E-03 3.494E-07 4.977E-04 2.540E+01
  31    50.00    0.572  259.3  3.245E-07 2.518E+07 5.946E-04 1.710E-07 1.545E-04 1.242E+01
  32    70.00    0.040  245.4  1.773E-09 6.112E+04 4.394E-05 1.264E-08 2.196E-06 9.178E-01
  33   100.00    0.000  218.5  2.500E-13 1.267E-01 5.219E-07 1.501E-10 2.086E-08 8.345E-03
1
  ATMOSPHERIC PROFILES

   I     Z       P       T      CNTMFRN     HNO3    AEROSOL 1 AEROSOL 2 AEROSOL 3 AEROSOL 4 AER1*RH   CIRRUS         RH
        (KM)    (MB)    (K)   MOL/CM2 KM ATM CM/KM   (-)       (-)       (-)       (-)       (-)       (-)      (PERCNT)

   1     0.00 1013.000  257.2  4.601E+21 0.000E+00 0.000E+00 0.000E+00 0.000E+00 0.000E+00 0.000E+00 0.000E+00 8.039E+01
   2     1.00  887.800  259.1  4.002E+21 0.000E+00 0.000E+00 0.000E+00 0.000E+00 0.000E+00 0.000E+00 0.000E+00 6.924E+01
   3     2.00  777.500  255.9  2.781E+21 0.000E+00 0.000E+00 0.000E+00 0.000E+00 0.000E+00 0.000E+00 0.000E+00 6.987E+01
   4     3.00  679.800  252.7  1.782E+21 0.000E+00 0.000E+00 0.000E+00 0.000E+00 0.000E+00 0.000E+00 0.000E+00 6.559E+01
   5     4.00  593.200  247.7  9.569E+20 0.000E+00 0.000E+00 0.000E+00 0.000E+00 0.000E+00 0.000E+00 0.000E+00 6.035E+01
   6     5.00  515.800  240.9  4.175E+20 0.000E+00 0.000E+00 0.000E+00 0.000E+00 0.000E+00 0.000E+00 0.000E+00 5.405E+01
   7     6.00  446.700  234.1  1.823E+20 0.000E+00 0.000E+00 0.000E+00 0.000E+00 0.000E+00 0.000E+00 0.000E+00 5.067E+01
   8     7.00  385.300  227.3  8.929E+19 0.000E+00 0.000E+00 0.000E+00 0.000E+00 0.000E+00 0.000E+00 0.000E+00 5.593E+01
   9     8.00  330.800  220.6  1.609E+19 0.000E+00 0.000E+00 0.000E+00 0.000E+00 0.000E+00 0.000E+00 0.000E+00 2.371E+01
  10     9.00  282.900  217.2  1.067E+19 0.000E+00 0.000E+00 0.000E+00 0.000E+00 0.000E+00 0.000E+00 0.000E+00 2.682E+01
  11    10.00  241.800  217.2  5.240E+18 0.000E+00 0.000E+00 0.000E+00 0.000E+00 0.000E+00 0.000E+00 0.000E+00 1.540E+01
  12    11.00  206.700  217.2  1.915E+18 0.000E+00 0.000E+00 0.000E+00 0.000E+00 0.000E+00 0.000E+00 0.000E+00 6.584E+00
  13    12.00  176.600  217.2  8.386E+17 0.000E+00 0.000E+00 0.000E+00 0.000E+00 0.000E+00 0.000E+00 0.000E+00 3.375E+00
  14    13.00  151.000  217.2  4.547E+17 0.000E+00 0.000E+00 0.000E+00 0.000E+00 0.000E+00 0.000E+00 0.000E+00 2.140E+00
  15    14.00  129.100  217.2  3.361E+17 0.000E+00 0.000E+00 0.000E+00 0.000E+00 0.000E+00 0.000E+00 0.000E+00 1.850E+00
  16    15.00  110.300  217.2  2.481E+17 0.000E+00 0.000E+00 0.000E+00 0.000E+00 0.000E+00 0.000E+00 0.000E+00 1.598E+00
  17    16.00   94.310  216.6  1.844E+17 0.000E+00 0.000E+00 0.000E+00 0.000E+00 0.000E+00 0.000E+00 0.000E+00 1.487E+00
  18    17.00   80.580  216.0  1.368E+17 0.000E+00 0.000E+00 0.000E+00 0.000E+00 0.000E+00 0.000E+00 0.000E+00 1.383E+00
  19    18.00   68.820  215.4  1.014E+17 0.000E+00 0.000E+00 0.000E+00 0.000E+00 0.000E+00 0.000E+00 0.000E+00 1.286E+00
  20    19.00   58.750  214.8  7.512E+16 0.000E+00 0.000E+00 0.000E+00 0.000E+00 0.000E+00 0.000E+00 0.000E+00 1.196E+00
  21    20.00   50.140  214.2  5.560E+16 0.000E+00 0.000E+00 0.000E+00 0.000E+00 0.000E+00 0.000E+00 0.000E+00 1.112E+00
  22    21.00   42.770  213.6  4.111E+16 0.000E+00 0.000E+00 0.000E+00 0.000E+00 0.000E+00 0.000E+00 0.000E+00 1.034E+00
  23    22.00   36.470  213.0  3.037E+16 0.000E+00 0.000E+00 0.000E+00 0.000E+00 0.000E+00 0.000E+00 0.000E+00 9.618E-01
  24    23.00   31.090  212.4  2.242E+16 0.000E+00 0.000E+00 0.000E+00 0.000E+00 0.000E+00 0.000E+00 0.000E+00 8.945E-01
  25    24.00   26.490  211.8  1.654E+16 0.000E+00 0.000E+00 0.000E+00 0.000E+00 0.000E+00 0.000E+00 0.000E+00 8.317E-01
  26    25.00   22.560  211.2  1.206E+16 0.000E+00 0.000E+00 0.000E+00 0.000E+00 0.000E+00 0.000E+00 0.000E+00 7.657E-01
  27    30.00   10.200  216.0  2.357E+15 0.000E+00 0.000E+00 0.000E+00 0.000E+00 0.000E+00 0.000E+00 0.000E+00 1.883E-01
  28    35.00    4.701  222.3  4.727E+14 0.000E+00 0.000E+00 0.000E+00 0.000E+00 0.000E+00 0.000E+00 0.000E+00 4.082E-02
  29    40.00    2.243  234.7  9.655E+13 0.000E+00 0.000E+00 0.000E+00 0.000E+00 0.000E+00 0.000E+00 0.000E+00 5.049E-03
  30    45.00    1.113  247.0  2.146E+13 0.000E+00 0.000E+00 0.000E+00 0.000E+00 0.000E+00 0.000E+00 0.000E+00 7.639E-04
  31    50.00    0.572  259.3  5.091E+12 0.000E+00 0.000E+00 0.000E+00 0.000E+00 0.000E+00 0.000E+00 0.000E+00 1.345E-04
  32    70.00    0.040  245.4  1.854E+10 0.000E+00 0.000E+00 0.000E+00 0.000E+00 0.000E+00 0.000E+00 0.000E+00 2.099E-05
  33   100.00    0.000  218.5  3.169E+05 0.000E+00 0.000E+00 0.000E+00 0.000E+00 0.000E+00 0.000E+00 0.000E+00 4.603E-07
1
  ATMOSPHERIC PROFILES

   I      Z       P       T      H2O      O3       CO2      CO       CH4      N2O      O2       NH3      NO       NO2      SO2
         (KM)    (MB)    (K)  (                                    MBAR                                                       )
   1     0.00 1013.000  257.2  1.20E+00 1.80E-02 8.00E+02 0.00E+00 1.70E+00 0.00E+00 2.09E+05 0.00E+00 0.00E+00 0.00E+00 0.00E+00
   2     1.00  887.800  259.1  1.20E+00 2.07E-02 8.00E+02 0.00E+00 1.70E+00 0.00E+00 2.09E+05 0.00E+00 0.00E+00 0.00E+00 0.00E+00
   3     2.00  777.500  255.9  9.39E-01 2.34E-02 8.00E+02 0.00E+00 1.70E+00 0.00E+00 2.09E+05 0.00E+00 0.00E+00 0.00E+00 0.00E+00
   4     3.00  679.800  252.7  6.79E-01 2.77E-02 8.00E+02 0.00E+00 1.70E+00 0.00E+00 2.09E+05 0.00E+00 0.00E+00 0.00E+00 0.00E+00
   5     4.00  593.200  247.7  4.09E-01 3.25E-02 8.00E+02 0.00E+00 1.70E+00 0.00E+00 2.09E+05 0.00E+00 0.00E+00 0.00E+00 0.00E+00
   6     5.00  515.800  240.9  2.00E-01 3.80E-02 8.00E+02 0.00E+00 1.69E+00 0.00E+00 2.09E+05 0.00E+00 0.00E+00 0.00E+00 0.00E+00
   7     6.00  446.700  234.1  9.79E-02 4.45E-02 8.00E+02 0.00E+00 1.67E+00 0.00E+00 2.09E+05 0.00E+00 0.00E+00 0.00E+00 0.00E+00
   8     7.00  385.300  227.3  5.39E-02 7.25E-02 8.00E+02 0.00E+00 1.65E+00 0.00E+00 2.09E+05 0.00E+00 0.00E+00 0.00E+00 0.00E+00
   9     8.00  330.800  220.6  1.10E-02 1.04E-01 8.00E+02 0.00E+00 1.63E+00 0.00E+00 2.09E+05 0.00E+00 0.00E+00 0.00E+00 0.00E+00
  10     9.00  282.900  217.2  8.39E-03 2.10E-01 8.00E+02 0.00E+00 1.62E+00 0.00E+00 2.09E+05 0.00E+00 0.00E+00 0.00E+00 0.00E+00
  11    10.00  241.800  217.2  4.82E-03 3.00E-01 8.00E+02 0.00E+00 1.58E+00 0.00E+00 2.09E+05 0.00E+00 0.00E+00 0.00E+00 0.00E+00
  12    11.00  206.700  217.2  2.06E-03 3.50E-01 8.00E+02 0.00E+00 1.54E+00 0.00E+00 2.09E+05 0.00E+00 0.00E+00 0.00E+00 0.00E+00
  13    12.00  176.600  217.2  1.06E-03 4.00E-01 8.00E+02 0.00E+00 1.51E+00 0.00E+00 2.09E+05 0.00E+00 0.00E+00 0.00E+00 0.00E+00
  14    13.00  151.000  217.2  6.70E-04 6.50E-01 8.00E+02 0.00E+00 1.47E+00 0.00E+00 2.09E+05 0.00E+00 0.00E+00 0.00E+00 0.00E+00
  15    14.00  129.100  217.2  5.79E-04 9.00E-01 8.00E+02 0.00E+00 1.43E+00 0.00E+00 2.09E+05 0.00E+00 0.00E+00 0.00E+00 0.00E+00
  16    15.00  110.300  217.2  5.00E-04 1.20E+00 8.00E+02 0.00E+00 1.39E+00 0.00E+00 2.09E+05 0.00E+00 0.00E+00 0.00E+00 0.00E+00
  17    16.00   94.310  216.6  4.34E-04 1.50E+00 8.00E+02 0.00E+00 1.34E+00 0.00E+00 2.09E+05 0.00E+00 0.00E+00 0.00E+00 0.00E+00
  18    17.00   80.580  216.0  3.76E-04 1.90E+00 8.00E+02 0.00E+00 1.29E+00 0.00E+00 2.09E+05 0.00E+00 0.00E+00 0.00E+00 0.00E+00
  19    18.00   68.820  215.4  3.25E-04 2.45E+00 8.00E+02 0.00E+00 1.23E+00 0.00E+00 2.09E+05 0.00E+00 0.00E+00 0.00E+00 0.00E+00
  20    19.00   58.750  214.8  2.81E-04 3.10E+00 8.00E+02 0.00E+00 1.16E+00 0.00E+00 2.09E+05 0.00E+00 0.00E+00 0.00E+00 0.00E+00
  21    20.00   50.140  214.2  2.43E-04 3.70E+00 8.00E+02 0.00E+00 1.08E+00 0.00E+00 2.09E+05 0.00E+00 0.00E+00 0.00E+00 0.00E+00
  22    21.00   42.770  213.6  2.10E-04 4.00E+00 8.00E+02 0.00E+00 1.01E+00 0.00E+00 2.09E+05 0.00E+00 0.00E+00 0.00E+00 0.00E+00
  23    22.00   36.470  213.0  1.82E-04 4.20E+00 8.00E+02 0.00E+00 9.56E-01 0.00E+00 2.09E+05 0.00E+00 0.00E+00 0.00E+00 0.00E+00
  24    23.00   31.090  212.4  1.57E-04 4.50E+00 8.00E+02 0.00E+00 9.01E-01 0.00E+00 2.09E+05 0.00E+00 0.00E+00 0.00E+00 0.00E+00
  25    24.00   26.490  211.8  1.35E-04 4.60E+00 8.00E+02 0.00E+00 8.48E-01 0.00E+00 2.09E+05 0.00E+00 0.00E+00 0.00E+00 0.00E+00
  26    25.00   22.560  211.2  1.16E-04 4.70E+00 8.00E+02 0.00E+00 7.96E-01 0.00E+00 2.09E+05 0.00E+00 0.00E+00 0.00E+00 0.00E+00
  27    30.00   10.200  216.0  5.11E-05 5.40E+00 8.00E+02 0.00E+00 6.94E-01 0.00E+00 2.09E+05 0.00E+00 0.00E+00 0.00E+00 0.00E+00
  28    35.00    4.701  222.3  2.29E-05 6.20E+00 8.00E+02 0.00E+00 5.88E-01 0.00E+00 2.09E+05 0.00E+00 0.00E+00 0.00E+00 0.00E+00
  29    40.00    2.243  234.7  1.03E-05 5.90E+00 8.00E+02 0.00E+00 4.51E-01 0.00E+00 2.09E+05 0.00E+00 0.00E+00 0.00E+00 0.00E+00
  30    45.00    1.113  247.0  4.88E-06 4.10E+00 8.00E+02 0.00E+00 3.00E-01 0.00E+00 2.09E+05 0.00E+00 0.00E+00 0.00E+00 0.00E+00
  31    50.00    0.572  259.3  2.36E-06 2.60E+00 8.00E+02 0.00E+00 1.98E-01 0.00E+00 2.09E+05 0.00E+00 0.00E+00 0.00E+00 0.00E+00
  32    70.00    0.040  245.4  1.16E-07 5.00E-01 8.00E+02 0.00E+00 1.50E-01 0.00E+00 2.09E+05 0.00E+00 0.00E+00 0.00E+00 0.00E+00
  33   100.00    0.000  218.5  1.68E-10 4.00E-01 4.73E+02 0.00E+00 1.20E-01 0.00E+00 1.60E+05 0.00E+00 0.00E+00 0.00E+00 0.00E+00
1
  ATMOSPHERIC PROFILES

   I      Z       P       T     CFC-11   CFC-12   CFC-13   CFC-14   CFC-22   CFC-113  CFC-114  CFC-115  CLONO2    HNO4    CHCL2F 
                                 CCL4     N2O5  
         (KM)    (MB)    (K)  (                                 ATM CM/KM                                                     )
   1     0.00 1013.000  257.2  1.49E-05 2.55E-05 1.06E-13 1.06E-13 6.37E-06 2.02E-06 1.27E-06 1.06E-13 6.10E-07 4.60E-08 1.06E-13
                               1.38E-05 2.57E-11
   2     1.00  887.800  259.1  1.29E-05 2.22E-05 9.23E-14 9.23E-14 5.53E-06 1.75E-06 1.11E-06 9.23E-14 4.73E-07 1.97E-07 9.23E-14
                               1.20E-05 8.81E-11
   3     2.00  777.500  255.9  1.15E-05 1.96E-05 8.19E-14 8.19E-14 4.90E-06 1.56E-06 9.82E-07 8.19E-14 3.69E-07 3.14E-07 8.19E-14
                               1.06E-05 1.36E-10
   4     3.00  679.800  252.7  1.01E-05 1.74E-05 7.25E-14 7.25E-14 4.34E-06 1.38E-06 8.70E-07 7.25E-14 2.81E-07 4.01E-07 7.25E-14
                               9.42E-06 1.72E-10
   5     4.00  593.200  247.7  9.03E-06 1.55E-05 6.45E-14 6.45E-14 3.86E-06 1.23E-06 7.74E-07 6.45E-14 2.10E-07 4.67E-07 6.45E-14
                               8.39E-06 1.99E-10
   6     5.00  515.800  240.9  8.08E-06 1.38E-05 5.77E-14 5.77E-14 3.45E-06 1.10E-06 6.92E-07 5.77E-14 1.59E-07 1.05E-06 5.77E-14
                               7.49E-06 2.08E-10
   7     6.00  446.700  234.1  7.20E-06 1.23E-05 5.14E-14 5.14E-14 3.07E-06 9.77E-07 6.17E-07 5.14E-14 1.16E-07 1.49E-06 5.14E-14
                               6.66E-06 2.12E-10
   8     7.00  385.300  227.3  6.39E-06 1.10E-05 4.57E-14 4.57E-14 2.73E-06 8.68E-07 5.48E-07 4.57E-14 7.97E-08 1.83E-06 4.57E-14
                               5.90E-06 2.12E-10
   9     8.00  330.800  220.6  5.66E-06 9.70E-06 4.04E-14 4.04E-14 2.41E-06 7.68E-07 4.85E-07 4.04E-14 5.01E-08 2.06E-06 4.04E-14
                               5.21E-06 2.08E-10
  10     9.00  282.900  217.2  4.91E-06 8.41E-06 3.51E-14 3.51E-14 2.09E-06 6.66E-07 4.21E-07 3.51E-14 4.24E-08 1.72E-06 3.51E-14
                               4.53E-06 2.02E-10
  11    10.00  241.800  217.2  4.18E-06 7.18E-06 3.00E-14 3.00E-14 1.79E-06 5.68E-07 3.60E-07 3.00E-14 3.52E-08 1.42E-06 3.00E-14
                               3.87E-06 1.91E-10
  12    11.00  206.700  217.2  3.57E-06 6.14E-06 2.56E-14 2.56E-14 1.53E-06 4.85E-07 3.08E-07 2.56E-14 2.93E-08 1.17E-06 2.56E-14
                               3.31E-06 1.79E-10
  13    12.00  176.600  217.2  3.04E-06 5.24E-06 2.19E-14 2.19E-14 1.30E-06 4.14E-07 2.63E-07 2.19E-14 2.43E-08 9.57E-07 2.19E-14
                               2.83E-06 1.66E-10
  14    13.00  151.000  217.2  2.53E-06 4.41E-06 1.87E-14 1.87E-14 1.10E-06 3.47E-07 2.22E-07 1.87E-14 1.50E-07 1.06E-06 1.87E-14
                               2.34E-06 8.25E-09
  15    14.00  129.100  217.2  2.10E-06 3.71E-06 1.60E-14 1.60E-14 9.34E-07 2.91E-07 1.88E-07 1.60E-14 2.39E-07 1.11E-06 1.60E-14
                               1.94E-06 1.40E-08
  16    15.00  110.300  217.2  1.74E-06 3.13E-06 1.37E-14 1.37E-14 7.90E-07 2.44E-07 1.59E-07 1.37E-14 2.98E-07 1.13E-06 1.37E-14
                               1.60E-06 1.79E-08
  17    16.00   94.310  216.6  1.44E-06 2.64E-06 1.17E-14 1.17E-14 6.71E-07 2.05E-07 1.35E-07 1.17E-14 3.37E-07 1.12E-06 1.17E-14
                               1.33E-06 2.04E-08
  18    17.00   80.580  216.0  1.13E-06 2.16E-06 1.01E-14 1.01E-14 5.59E-07 1.66E-07 1.12E-07 1.01E-14 1.02E-06 1.43E-06 1.01E-14
                               1.02E-06 8.82E-08
  19    18.00   68.820  215.4  8.74E-07 1.76E-06 8.61E-15 8.61E-15 4.65E-07 1.34E-07 9.34E-08 8.61E-15 1.50E-06 1.64E-06 8.61E-15
                               7.80E-07 1.36E-07
  20    19.00   58.750  214.8  6.70E-07 1.43E-06 7.37E-15 7.37E-15 3.87E-07 1.07E-07 7.76E-08 7.37E-15 1.82E-06 1.75E-06 7.37E-15
                               5.85E-07 1.68E-07
  21    20.00   50.140  214.2  5.06E-07 1.16E-06 6.31E-15 6.31E-15 3.21E-07 8.58E-08 6.43E-08 6.31E-15 2.02E-06 1.80E-06 6.31E-15
                               4.30E-07 1.89E-07
  22    21.00   42.770  213.6  3.70E-07 9.22E-07 5.39E-15 5.39E-15 2.64E-07 6.68E-08 5.26E-08 5.39E-15 2.48E-06 1.90E-06 5.39E-15
                               3.08E-07 2.24E-07
  23    22.00   36.470  213.0  2.63E-07 7.29E-07 4.61E-15 4.61E-15 2.17E-07 5.15E-08 4.29E-08 4.61E-15 2.77E-06 1.93E-06 4.61E-15
                               2.13E-07 2.44E-07
  24    23.00   31.090  212.4  1.80E-07 5.72E-07 3.94E-15 3.94E-15 1.77E-07 3.92E-08 3.50E-08 3.94E-15 2.92E-06 1.91E-06 3.94E-15
                               1.38E-07 2.55E-07
  25    24.00   26.490  211.8  1.15E-07 4.45E-07 3.37E-15 3.37E-15 1.45E-07 2.93E-08 2.84E-08 3.37E-15 2.97E-06 1.86E-06 3.37E-15
                               8.09E-08 2.56E-07
  26    25.00   22.560  211.2  7.85E-08 3.42E-07 2.88E-15 2.88E-15 1.18E-07 2.19E-08 2.29E-08 2.88E-15 2.80E-06 1.67E-06 2.88E-15
                               5.42E-08 2.22E-07
  27    30.00   10.200  216.0  4.96E-09 7.49E-08 1.27E-15 1.27E-15 3.85E-08 3.71E-09 7.17E-09 1.27E-15 1.45E-06 6.49E-07 1.27E-15
                               2.23E-09 7.02E-08
  28    35.00    4.701  222.3  1.13E-10 1.22E-08 5.70E-16 5.70E-16 1.18E-08 4.08E-10 2.08E-09 5.70E-16 2.98E-07 8.37E-08 5.70E-16
                               2.25E-11 6.16E-09
  29    40.00    2.243  234.7  4.76E-13 1.57E-09 2.57E-16 2.57E-16 3.58E-09 3.17E-11 5.97E-10 2.57E-16 1.10E-08 2.56E-09 2.57E-16
                               1.02E-14 5.48E-11
  30    45.00    1.113  247.0  1.11E-14 2.59E-10 1.21E-16 1.21E-16 1.26E-09 3.90E-12 1.96E-10 1.21E-16 2.04E-10 1.06E-10 1.21E-16
                               6.76E-17 4.78E-13
  31    50.00    0.572  259.3  3.54E-16 5.06E-11 5.94E-17 5.94E-17 5.22E-10 5.89E-13 7.43E-11 5.94E-17 2.77E-12 4.53E-12 5.94E-17
                               6.49E-19 3.74E-15
  32    70.00    0.040  245.4  2.24E-21 1.71E-13 4.39E-18 4.39E-18 3.16E-11 7.72E-16 2.57E-12 4.39E-18 3.18E-19 1.41E-16 4.39E-18
                               4.34E-26 3.60E-23
  33   100.00    0.000  218.5  1.62E-30 1.29E-18 5.22E-20 5.22E-20 9.34E-14 6.83E-22 1.11E-15 5.22E-20 4.21E-35 1.74E-31 5.22E-20
                               2.66E-38 0.00E+00


 CASE 3A: GIVEN H1,H2=SPACE,ANGLE



 TANGENT PATH WITH H1 =     70.000 AND ANGLE =    180.000 INTERSECTS THE EARTH

          H2 HAS BEEN RESET TO 0.0 AND LEN TO 0



 SLANT PATH PARAMETERS IN STANDARD FORM

          H1      =     70.000 KM
          H2      =      0.000 KM
          ANGLE   =    180.000 DEG
          PHI     =      0.000 DEG
          HMIN    =      0.000 KM
          LEN     =          0
1CALCULATION OF THE REFRACTED PATH THROUGH THE ATMOSPHERE


  I       ALTITUDE        THETA  DRANGE    RANGE    DBETA     BETA     PHI     DBEND  BENDING    PBAR    TBAR   RHOBAR
      FROM       TO
      (KM)      (KM)      (DEG)    (KM)     (KM)    (DEG)    (DEG)    (DEG)    (DEG)    (DEG)    (MB)    (K)  (GM CM-3)

          H2 TO H1

  1    0.000    1.000    0.000    1.000    1.000    0.000    0.000  180.000    0.000    0.000  950.477  258.13 1.28E-03
  2    1.000    2.000    0.000    1.000    2.000    0.000    0.000  180.000    0.000    0.000  832.536  257.53 1.12E-03
  3    2.000    3.000    0.000    1.000    3.000    0.000    0.000  180.000    0.000    0.000  728.548  254.33 9.97E-04
  4    3.000    4.000    0.000    1.000    4.000    0.000    0.000  180.000    0.000    0.000  636.356  250.24 8.85E-04
  5    4.000    5.000    0.000    1.000    5.000    0.000    0.000  180.000    0.000    0.000  554.320  244.35 7.89E-04
  6    5.000    6.000    0.000    1.000    6.000    0.000    0.000  180.000    0.000    0.000  481.085  237.55 7.05E-04
  7    6.000    7.000    0.000    1.000    7.000    0.000    0.000  180.000    0.000    0.000  415.849  230.75 6.27E-04
  8    7.000    8.000    0.000    1.000    8.000    0.000    0.000  180.000    0.000    0.000  357.914  224.00 5.56E-04
  9    8.000    9.000    0.000    1.000    9.000    0.000    0.000  180.000    0.000    0.000  306.788  218.94 4.87E-04
 10    9.000   10.000    0.000    1.000   10.000    0.000    0.000  180.000    0.000    0.000  262.350  217.20 4.20E-04
 11   10.000   11.000    0.000    1.000   11.000    0.000    0.000  180.000    0.000    0.000  224.250  217.20 3.59E-04
 12   11.000   12.000    0.000    1.000   12.000    0.000    0.000  180.000    0.000    0.000  191.650  217.20 3.07E-04
 13   12.000   13.000    0.000    1.000   13.000    0.000    0.000  180.000    0.000    0.000  163.800  217.20 2.62E-04
 14   13.000   14.000    0.000    1.000   14.000    0.000    0.000  180.000    0.000    0.000  140.050  217.20 2.24E-04
 15   14.000   15.000    0.000    1.000   15.000    0.000    0.000  180.000    0.000    0.000  119.700  217.20 1.92E-04
 16   15.000   16.000    0.000    1.000   16.000    0.000    0.000  180.000    0.000    0.000  102.301  216.91 1.64E-04
 17   16.000   17.000    0.000    1.000   17.000    0.000    0.000  180.000    0.000    0.000   87.442  216.31 1.41E-04
 18   17.000   18.000    0.000    1.000   18.000    0.000    0.000  180.000    0.000    0.000   74.697  215.71 1.20E-04
 19   18.000   19.000    0.000    1.000   19.000    0.000    0.000  180.000    0.000    0.000   63.783  215.11 1.03E-04
 20   19.000   20.000    0.000    1.000   20.000    0.000    0.000  180.000    0.000    0.000   54.443  214.51 8.82E-05
 21   20.000   21.000    0.000    1.000   21.000    0.000    0.000  180.000    0.000    0.000   46.453  213.91 7.55E-05
 22   21.000   22.000    0.000    1.000   22.000    0.000    0.000  180.000    0.000    0.000   39.619  213.31 6.46E-05
 23   22.000   23.000    0.000    1.000   23.000    0.000    0.000  180.000    0.000    0.000   33.779  212.71 5.52E-05
 24   23.000   24.000    0.000    1.000   24.000    0.000    0.000  180.000    0.000    0.000   28.789  212.11 4.72E-05
 25   24.000   25.000    0.000    1.000   25.000    0.000    0.000  180.000    0.000    0.000   24.524  211.51 4.03E-05
 26   25.000   30.000    0.000    5.000   30.000    0.000    0.000  180.000    0.000    0.000   16.403  213.27 2.54E-05
 27   30.000   35.000    0.000    5.000   35.000    0.000    0.000  180.000    0.000    0.000    7.463  218.72 1.13E-05
 28   35.000   40.000    0.000    5.000   40.000    0.000    0.000  180.000    0.000    0.000    3.483  227.63 5.08E-06
 29   40.000   45.000    0.000    5.000   45.000    0.000    0.000  180.000    0.000    0.000    1.683  240.03 2.34E-06
 30   45.000   50.000    0.000    5.000   50.000    0.000    0.000  180.000    0.000    0.000    0.845  252.37 1.12E-06
 31   50.000   70.000    0.000   20.000   70.000    0.000    0.000  180.000    0.000    0.000    0.304  255.02 2.73E-07




1CUMULATIVE ABSORBER AMOUNTS FOR THE PATH FROM H1 TO Z

  J     Z        TBAR     HNO3        O3 UV      CNTMSLF1   CNTMSLF2    CNTMFRN      O2
       (KM)       (K)   (ATM CM)    (ATM CM)    (MOL CM-2)  (MOL CM-2)  (MOL CM-2)(MOL CM-2)

  1   50.000   255.02   0.000E+00   7.160E-04   8.344E+07   9.499E+07   1.807E+13   8.833E+01
  2   45.000   252.37   0.000E+00   2.183E-03   3.666E+08   4.381E+08   7.496E+13   1.790E+02
  3   40.000   240.03   0.000E+00   6.759E-03   1.614E+09   2.377E+09   3.246E+14   3.685E+02
  4   35.000   227.63   0.000E+00   1.869E-02   7.530E+09   1.361E+10   1.509E+15   7.808E+02
  5   30.000   218.72   0.000E+00   4.377E-02   3.683E+10   7.651E+10   7.373E+15   1.702E+03
  6   25.000   213.27   0.000E+00   9.290E-02   1.853E+11   4.178E+11   3.709E+16   3.794E+03
  7   24.000   211.51   0.000E+00   1.074E-01   2.562E+11   5.840E+11   5.128E+16   4.463E+03
  8   23.000   212.11   0.000E+00   1.240E-01   3.522E+11   8.079E+11   7.061E+16   5.249E+03
  9   22.000   212.71   0.000E+00   1.425E-01   4.811E+11   1.106E+12   9.680E+16   6.173E+03
 10   21.000   213.31   0.000E+00   1.630E-01   6.538E+11   1.503E+12   1.323E+17   7.260E+03
 11   20.000   213.91   0.000E+00   1.854E-01   8.852E+11   2.030E+12   1.803E+17   8.539E+03
 12   19.000   214.51   0.000E+00   2.085E-01   1.195E+12   2.731E+12   2.451E+17   1.005E+04
 13   18.000   215.11   0.000E+00   2.305E-01   1.608E+12   3.660E+12   3.328E+17   1.182E+04
 14   17.000   215.71   0.000E+00   2.506E-01   2.160E+12   4.892E+12   4.510E+17   1.392E+04
 15   16.000   216.31   0.000E+00   2.689E-01   2.897E+12   6.522E+12   6.104E+17   1.640E+04
 16   15.000   216.91   0.000E+00   2.859E-01   3.878E+12   8.677E+12   8.251E+17   1.933E+04
 17   14.000   217.20   0.000E+00   3.013E-01   5.188E+12   1.155E+13   1.115E+18   2.281E+04
 18   13.000   217.20   0.000E+00   3.146E-01   6.942E+12   1.539E+13   1.507E+18   2.695E+04
 19   12.000   217.20   0.000E+00   3.251E-01   1.024E+13   2.261E+13   2.135E+18   3.191E+04
 20   11.000   217.20   0.000E+00   3.340E-01   2.080E+13   4.571E+13   3.438E+18   3.785E+04
 21   10.000   217.20   0.000E+00   3.429E-01   7.114E+13   1.559E+14   6.741E+18   4.499E+04
 22    9.000   217.20   0.000E+00   3.511E-01   2.629E+14   5.757E+14   1.438E+19   5.361E+04
 23    8.000   218.94   0.000E+00   3.569E-01   6.835E+14   1.476E+15   2.757E+19   6.396E+04
 24    7.000   224.00   0.000E+00   3.607E-01   4.634E+15   9.376E+15   7.029E+19   7.616E+04
 25    6.000   230.75   0.000E+00   3.635E-01   2.986E+16   5.510E+16   2.006E+20   9.038E+04
 26    5.000   237.55   0.000E+00   3.657E-01   1.256E+17   2.106E+17   4.844E+20   1.069E+05
 27    4.000   244.35   0.000E+00   3.679E-01   5.268E+17   7.861E+17   1.135E+21   1.262E+05
 28    3.000   250.24   0.000E+00   3.699E-01   1.834E+18   2.448E+18   2.462E+21   1.486E+05
 29    2.000   254.33   0.000E+00   3.719E-01   4.758E+18   5.832E+18   4.706E+21   1.750E+05
 30    1.000   257.53   0.000E+00   3.738E-01   9.876E+18   1.130E+19   8.061E+21   2.064E+05
 31    0.000   258.13   0.000E+00   3.757E-01   1.635E+19   1.811E+19   1.236E+22   2.441E+05



1 J     Z       N2 CONT    MOL SCAT       AER 1       AER 2       AER 3       AER 4       CIRRUS
       (KM)

  1   50.000   1.239E-06   4.227E-03   0.000E+00   0.000E+00   0.000E+00   0.000E+00   0.000E+00
  2   45.000   4.844E-06   8.568E-03   0.000E+00   0.000E+00   0.000E+00   0.000E+00   0.000E+00
  3   40.000   2.060E-05   1.762E-02   0.000E+00   0.000E+00   0.000E+00   0.000E+00   0.000E+00
  4   35.000   9.533E-05   3.729E-02   0.000E+00   0.000E+00   0.000E+00   0.000E+00   0.000E+00
  5   30.000   4.655E-04   8.104E-02   0.000E+00   0.000E+00   0.000E+00   0.000E+00   0.000E+00
  6   25.000   2.341E-03   1.795E-01   0.000E+00   0.000E+00   0.000E+00   0.000E+00   0.000E+00
  7   24.000   3.236E-03   2.106E-01   0.000E+00   0.000E+00   0.000E+00   0.000E+00   0.000E+00
  8   23.000   4.463E-03   2.472E-01   0.000E+00   0.000E+00   0.000E+00   0.000E+00   0.000E+00
  9   22.000   6.142E-03   2.899E-01   0.000E+00   0.000E+00   0.000E+00   0.000E+00   0.000E+00
 10   21.000   8.439E-03   3.398E-01   0.000E+00   0.000E+00   0.000E+00   0.000E+00   0.000E+00
 11   20.000   1.158E-02   3.983E-01   0.000E+00   0.000E+00   0.000E+00   0.000E+00   0.000E+00
 12   19.000   1.587E-02   4.665E-01   0.000E+00   0.000E+00   0.000E+00   0.000E+00   0.000E+00
 13   18.000   2.172E-02   5.463E-01   0.000E+00   0.000E+00   0.000E+00   0.000E+00   0.000E+00
 14   17.000   2.970E-02   6.395E-01   0.000E+00   0.000E+00   0.000E+00   0.000E+00   0.000E+00
 15   16.000   4.059E-02   7.482E-01   0.000E+00   0.000E+00   0.000E+00   0.000E+00   0.000E+00
 16   15.000   5.540E-02   8.751E-01   0.000E+00   0.000E+00   0.000E+00   0.000E+00   0.000E+00
 17   14.000   7.562E-02   1.023E+00   0.000E+00   0.000E+00   0.000E+00   0.000E+00   0.000E+00
 18   13.000   1.033E-01   1.197E+00   0.000E+00   0.000E+00   0.000E+00   0.000E+00   0.000E+00
 19   12.000   1.412E-01   1.400E+00   0.000E+00   0.000E+00   0.000E+00   0.000E+00   0.000E+00
 20   11.000   1.930E-01   1.637E+00   0.000E+00   0.000E+00   0.000E+00   0.000E+00   0.000E+00
 21   10.000   2.640E-01   1.915E+00   0.000E+00   0.000E+00   0.000E+00   0.000E+00   0.000E+00
 22    9.000   3.611E-01   2.240E+00   0.000E+00   0.000E+00   0.000E+00   0.000E+00   0.000E+00
 23    8.000   4.919E-01   2.617E+00   0.000E+00   0.000E+00   0.000E+00   0.000E+00   0.000E+00
 24    7.000   6.619E-01   3.047E+00   0.000E+00   0.000E+00   0.000E+00   0.000E+00   0.000E+00
 25    6.000   8.782E-01   3.532E+00   0.000E+00   0.000E+00   0.000E+00   0.000E+00   0.000E+00
 26    5.000   1.151E+00   4.077E+00   0.000E+00   0.000E+00   0.000E+00   0.000E+00   0.000E+00
 27    4.000   1.494E+00   4.688E+00   0.000E+00   0.000E+00   0.000E+00   0.000E+00   0.000E+00
 28    3.000   1.925E+00   5.373E+00   0.000E+00   0.000E+00   0.000E+00   0.000E+00   0.000E+00
 29    2.000   2.472E+00   6.144E+00   0.000E+00   0.000E+00   0.000E+00   0.000E+00   0.000E+00
 30    1.000   3.168E+00   7.014E+00   0.000E+00   0.000E+00   0.000E+00   0.000E+00   0.000E+00
 31    0.000   4.071E+00   8.005E+00   0.000E+00   0.000E+00   0.000E+00   0.000E+00   0.000E+00



1  J    Z       H2O       O3        CO2       CO        CH4       N2O       O2        NH3       NO        NO2       SO2
      (KM)    (                                                      ATM CM                                             )

   1   50.00  1.86E-03  7.16E-04  3.38E-01  0.00E+00  7.71E-05  0.00E+00  8.83E+01  0.00E+00  0.00E+00  0.00E+00  0.00E+00
   2   45.00  4.02E-03  2.18E-03  6.85E-01  0.00E+00  1.86E-04  0.00E+00  1.79E+02  0.00E+00  0.00E+00  0.00E+00  0.00E+00
   3   40.00  8.54E-03  6.76E-03  1.41E+00  0.00E+00  5.30E-04  0.00E+00  3.68E+02  0.00E+00  0.00E+00  0.00E+00  0.00E+00
   4   35.00  1.84E-02  1.87E-02  2.98E+00  0.00E+00  1.56E-03  0.00E+00  7.79E+02  0.00E+00  0.00E+00  0.00E+00  0.00E+00
   5   30.00  4.02E-02  4.38E-02  6.48E+00  0.00E+00  4.39E-03  0.00E+00  1.69E+03  0.00E+00  0.00E+00  0.00E+00  0.00E+00
   6   25.00  8.94E-02  9.29E-02  1.43E+01  0.00E+00  1.18E-02  0.00E+00  3.75E+03  0.00E+00  0.00E+00  0.00E+00  0.00E+00
   7   24.00  1.05E-01  1.07E-01  1.68E+01  0.00E+00  1.43E-02  0.00E+00  4.40E+03  0.00E+00  0.00E+00  0.00E+00  0.00E+00
   8   23.00  1.23E-01  1.24E-01  1.98E+01  0.00E+00  1.75E-02  0.00E+00  5.16E+03  0.00E+00  0.00E+00  0.00E+00  0.00E+00
   9   22.00  1.44E-01  1.43E-01  2.32E+01  0.00E+00  2.15E-02  0.00E+00  6.05E+03  0.00E+00  0.00E+00  0.00E+00  0.00E+00
  10   21.00  1.68E-01  1.63E-01  2.72E+01  0.00E+00  2.64E-02  0.00E+00  7.10E+03  0.00E+00  0.00E+00  0.00E+00  0.00E+00
  11   20.00  1.97E-01  1.85E-01  3.18E+01  0.00E+00  3.25E-02  0.00E+00  8.32E+03  0.00E+00  0.00E+00  0.00E+00  0.00E+00
  12   19.00  2.29E-01  2.09E-01  3.73E+01  0.00E+00  4.02E-02  0.00E+00  9.74E+03  0.00E+00  0.00E+00  0.00E+00  0.00E+00
  13   18.00  2.67E-01  2.30E-01  4.37E+01  0.00E+00  4.97E-02  0.00E+00  1.14E+04  0.00E+00  0.00E+00  0.00E+00  0.00E+00
  14   17.00  3.10E-01  2.51E-01  5.11E+01  0.00E+00  6.15E-02  0.00E+00  1.34E+04  0.00E+00  0.00E+00  0.00E+00  0.00E+00
  15   16.00  3.61E-01  2.69E-01  5.98E+01  0.00E+00  7.58E-02  0.00E+00  1.56E+04  0.00E+00  0.00E+00  0.00E+00  0.00E+00
  16   15.00  4.19E-01  2.86E-01  7.00E+01  0.00E+00  9.31E-02  0.00E+00  1.83E+04  0.00E+00  0.00E+00  0.00E+00  0.00E+00
  17   14.00  4.86E-01  3.01E-01  8.18E+01  0.00E+00  1.14E-01  0.00E+00  2.14E+04  0.00E+00  0.00E+00  0.00E+00  0.00E+00
  18   13.00  5.63E-01  3.15E-01  9.57E+01  0.00E+00  1.39E-01  0.00E+00  2.50E+04  0.00E+00  0.00E+00  0.00E+00  0.00E+00
  19   12.00  6.69E-01  3.25E-01  1.12E+02  0.00E+00  1.69E-01  0.00E+00  2.92E+04  0.00E+00  0.00E+00  0.00E+00  0.00E+00
  20   11.00  8.56E-01  3.34E-01  1.31E+02  0.00E+00  2.06E-01  0.00E+00  3.42E+04  0.00E+00  0.00E+00  0.00E+00  0.00E+00
  21   10.00  1.26E+00  3.43E-01  1.53E+02  0.00E+00  2.49E-01  0.00E+00  4.00E+04  0.00E+00  0.00E+00  0.00E+00  0.00E+00
  22    9.00  2.06E+00  3.51E-01  1.79E+02  0.00E+00  3.01E-01  0.00E+00  4.68E+04  0.00E+00  0.00E+00  0.00E+00  0.00E+00
  23    8.00  3.26E+00  3.57E-01  2.09E+02  0.00E+00  3.62E-01  0.00E+00  5.47E+04  0.00E+00  0.00E+00  0.00E+00  0.00E+00
  24    7.00  6.62E+00  3.61E-01  2.44E+02  0.00E+00  4.32E-01  0.00E+00  6.36E+04  0.00E+00  0.00E+00  0.00E+00  0.00E+00
  25    6.00  1.58E+01  3.63E-01  2.82E+02  0.00E+00  5.13E-01  0.00E+00  7.38E+04  0.00E+00  0.00E+00  0.00E+00  0.00E+00
  26    5.00  3.36E+01  3.66E-01  3.26E+02  0.00E+00  6.04E-01  0.00E+00  8.52E+04  0.00E+00  0.00E+00  0.00E+00  0.00E+00
  27    4.00  6.99E+01  3.68E-01  3.75E+02  0.00E+00  7.08E-01  0.00E+00  9.79E+04  0.00E+00  0.00E+00  0.00E+00  0.00E+00
  28    3.00  1.36E+02  3.70E-01  4.30E+02  0.00E+00  8.24E-01  0.00E+00  1.12E+05  0.00E+00  0.00E+00  0.00E+00  0.00E+00
  29    2.00  2.36E+02  3.72E-01  4.91E+02  0.00E+00  9.55E-01  0.00E+00  1.28E+05  0.00E+00  0.00E+00  0.00E+00  0.00E+00
  30    1.00  3.68E+02  3.74E-01  5.61E+02  0.00E+00  1.10E+00  0.00E+00  1.46E+05  0.00E+00  0.00E+00  0.00E+00  0.00E+00
  31    0.00  5.17E+02  3.76E-01  6.40E+02  0.00E+00  1.27E+00  0.00E+00  1.67E+05  0.00E+00  0.00E+00  0.00E+00  0.00E+00



1  J    Z      CFC-11    CFC-12    CFC-13    CFC-14    CFC-22    CFC-113   CFC-114   CFC-115   CLONO2     HNO4     CHCL2F 
                CCL4      N2O5  
      (KM)    (                                                   ATM CM                                                )

   1   50.00  5.92E-16  1.77E-10  4.22E-16  4.22E-16  3.49E-09  1.77E-12  4.26E-10  4.22E-16  3.47E-12  8.74E-12  4.22E-16
              7.86E-19  4.05E-15
   2   45.00  1.62E-14  8.16E-10  8.56E-16  8.56E-16  7.68E-09  1.05E-11  1.05E-09  8.56E-16  2.38E-10  1.70E-10  8.56E-16
              7.29E-17  4.93E-13
   3   40.00  6.36E-13  4.45E-09  1.76E-15  1.76E-15  1.88E-08  7.68E-11  2.86E-09  1.76E-15  1.38E-08  4.03E-09  1.76E-15
              1.02E-14  5.78E-11
   4   35.00  1.04E-10  3.03E-08  3.73E-15  3.73E-15  5.32E-08  8.13E-10  8.80E-09  3.73E-15  4.49E-07  1.20E-07  3.73E-15
              1.46E-11  6.53E-09
   5   30.00  6.52E-09  2.03E-07  8.10E-15  8.10E-15  1.66E-07  8.29E-09  2.94E-08  8.10E-15  4.09E-06  1.50E-06  8.10E-15
              2.42E-09  1.38E-07
   6   25.00  1.40E-07  1.08E-06  1.79E-14  1.79E-14  5.20E-07  5.95E-08  9.70E-08  1.79E-14  1.43E-05  6.90E-06  1.79E-14
              8.39E-08  7.97E-07
   7   24.00  2.35E-07  1.47E-06  2.11E-14  2.11E-14  6.51E-07  8.49E-08  1.23E-07  2.11E-14  1.72E-05  8.67E-06  2.11E-14
              1.51E-07  1.04E-06
   8   23.00  3.80E-07  1.98E-06  2.47E-14  2.47E-14  8.11E-07  1.19E-07  1.54E-07  2.47E-14  2.02E-05  1.06E-05  2.47E-14
              2.58E-07  1.29E-06
   9   22.00  5.99E-07  2.63E-06  2.90E-14  2.90E-14  1.01E-06  1.64E-07  1.93E-07  2.90E-14  2.30E-05  1.25E-05  2.90E-14
              4.30E-07  1.54E-06
  10   21.00  9.12E-07  3.45E-06  3.40E-14  3.40E-14  1.25E-06  2.23E-07  2.41E-07  3.40E-14  2.56E-05  1.44E-05  3.40E-14
              6.88E-07  1.77E-06
  11   20.00  1.35E-06  4.48E-06  3.98E-14  3.98E-14  1.54E-06  2.99E-07  2.99E-07  3.98E-14  2.79E-05  1.62E-05  3.98E-14
              1.05E-06  1.98E-06
  12   19.00  1.93E-06  5.78E-06  4.66E-14  4.66E-14  1.89E-06  3.95E-07  3.70E-07  4.66E-14  2.98E-05  1.80E-05  4.66E-14
              1.56E-06  2.16E-06
  13   18.00  2.70E-06  7.37E-06  5.46E-14  5.46E-14  2.32E-06  5.15E-07  4.55E-07  5.46E-14  3.15E-05  1.97E-05  5.46E-14
              2.23E-06  2.31E-06
  14   17.00  3.69E-06  9.32E-06  6.39E-14  6.39E-14  2.83E-06  6.64E-07  5.57E-07  6.39E-14  3.27E-05  2.12E-05  6.39E-14
              3.13E-06  2.42E-06
  15   16.00  4.97E-06  1.17E-05  7.48E-14  7.48E-14  3.44E-06  8.49E-07  6.81E-07  7.48E-14  3.34E-05  2.25E-05  7.48E-14
              4.30E-06  2.48E-06
  16   15.00  6.56E-06  1.46E-05  8.75E-14  8.75E-14  4.17E-06  1.07E-06  8.27E-07  8.75E-14  3.37E-05  2.36E-05  8.75E-14
              5.76E-06  2.50E-06
  17   14.00  8.47E-06  1.80E-05  1.02E-13  1.02E-13  5.03E-06  1.34E-06  1.00E-06  1.02E-13  3.40E-05  2.48E-05  1.02E-13
              7.52E-06  2.51E-06
  18   13.00  1.08E-05  2.20E-05  1.20E-13  1.20E-13  6.05E-06  1.66E-06  1.21E-06  1.20E-13  3.42E-05  2.58E-05  1.20E-13
              9.65E-06  2.52E-06
  19   12.00  1.36E-05  2.69E-05  1.40E-13  1.40E-13  7.25E-06  2.04E-06  1.45E-06  1.40E-13  3.43E-05  2.68E-05  1.40E-13
              1.22E-05  2.53E-06
  20   11.00  1.69E-05  3.25E-05  1.64E-13  1.64E-13  8.66E-06  2.49E-06  1.73E-06  1.64E-13  3.43E-05  2.79E-05  1.64E-13
              1.53E-05  2.53E-06
  21   10.00  2.07E-05  3.92E-05  1.91E-13  1.91E-13  1.03E-05  3.01E-06  2.07E-06  1.91E-13  3.43E-05  2.92E-05  1.91E-13
              1.89E-05  2.53E-06
  22    9.00  2.53E-05  4.70E-05  2.24E-13  2.24E-13  1.22E-05  3.63E-06  2.45E-06  2.24E-13  3.44E-05  3.08E-05  2.24E-13
              2.31E-05  2.53E-06
  23    8.00  3.05E-05  5.60E-05  2.62E-13  2.62E-13  1.45E-05  4.34E-06  2.91E-06  2.62E-13  3.44E-05  3.26E-05  2.62E-13
              2.79E-05  2.53E-06
  24    7.00  3.66E-05  6.63E-05  3.04E-13  3.04E-13  1.71E-05  5.16E-06  3.42E-06  3.04E-13  3.45E-05  3.46E-05  3.04E-13
              3.35E-05  2.53E-06
  25    6.00  4.33E-05  7.80E-05  3.53E-13  3.53E-13  2.00E-05  6.08E-06  4.00E-06  3.53E-13  3.46E-05  3.62E-05  3.53E-13
              3.97E-05  2.53E-06
  26    5.00  5.10E-05  9.10E-05  4.07E-13  4.07E-13  2.32E-05  7.12E-06  4.66E-06  4.07E-13  3.47E-05  3.75E-05  4.07E-13
              4.68E-05  2.53E-06
  27    4.00  5.95E-05  1.06E-04  4.68E-13  4.68E-13  2.69E-05  8.28E-06  5.39E-06  4.68E-13  3.49E-05  3.83E-05  4.68E-13
              5.47E-05  2.53E-06
  28    3.00  6.91E-05  1.22E-04  5.37E-13  5.37E-13  3.10E-05  9.58E-06  6.21E-06  5.37E-13  3.51E-05  3.87E-05  5.37E-13
              6.36E-05  2.53E-06
  29    2.00  7.99E-05  1.41E-04  6.14E-13  6.14E-13  3.56E-05  1.10E-05  7.14E-06  6.14E-13  3.55E-05  3.91E-05  6.14E-13
              7.36E-05  2.53E-06
  30    1.00  9.21E-05  1.61E-04  7.01E-13  7.01E-13  4.08E-05  1.27E-05  8.18E-06  7.01E-13  3.59E-05  3.93E-05  7.01E-13
              8.50E-05  2.53E-06
  31    0.00  1.06E-04  1.85E-04  8.00E-13  8.00E-13  4.67E-05  1.46E-05  9.37E-06  8.00E-13  3.64E-05  3.94E-05  8.00E-13
              9.78E-05  2.53E-06


0SUMMARY OF THE GEOMETRY CALCULATION

          H1      =     70.000 KM
          H2      =      0.000 KM
          ANGLE   =    180.000 DEG
          RANGE   =     70.000 KM
          BETA    =      0.000 DEG
          PHI     =      0.000 DEG
          HMIN    =      0.000 KM
          BENDING =      0.000 DEG
          LEN     =          0




1EQUIVALENT SEA LEVEL TOTAL ABSORBER AMOUNTS

                 HNO3      O3 UV       CNTMSLF1    CNTMSLF2   CNTMFRN
               (ATM CM)   (ATM CM)     (MOL CM-2)  (MOL CM-2)  (MOL CM-2)  (MOL CM-2)

             0.000E+00   3.757E-01   1.635E+19   1.811E+19   1.236E+22


              N2 CONT    MOL SCAT       AER 1       AER 2       AER 3       AER 4     CIRRUS      MEAN RH
                                                                                                  (PRCNT)

             4.071E+00   8.005E+00   0.000E+00   0.000E+00   0.000E+00   0.000E+00   0.000E+00        0.00


                 H2O        O3          CO2         CO          CH4         N2O          O2
               (                                        ATM CM                            )

             5.173E+02   3.757E-01   6.400E+02   0.000E+00   1.271E+00   0.000E+00   1.672E+05

                 NH3        NO          NO2         SO2
                 (               ATM CM               )

             0.000E+00   0.000E+00   0.000E+00   0.000E+00

             CFC-11      CFC-12      CFC-13      CFC-14      CFC-22      CFC-113     CFC-114
                 (                                      ATM CM                            )

             1.059E-04   1.852E-04   8.000E-13   8.000E-13   4.673E-05   1.458E-05   9.369E-06

             CFC-115     CLONO2       HNO4       CHCL2F       CCL4        N2O5  
                 (                                      ATM CM                            )

             8.000E-13   3.642E-05   3.944E-05   8.000E-13   9.783E-05   2.530E-06
  iv           -5
  iv            0
1                                             RADIANCE(WATTS/CM2-STER-XXX)
0  FREQ   WAVLEN    PATH THERMAL      SURFACE EMISSION    SURFACE REFLECTED     TOTAL RADIANCE   INTEGRAL    TOTAL
  (CM-1) (MICRN)    (CM-1)   (MICRN)    (CM-1)   (MICRN)    (CM-1)   (MICRN)    (CM-1)   (MICRN)    (CM-1)   TRANS

      2. 4999.998  4.93E-10  1.97E-13  5.82E-10  2.33E-13  0.00E+00  0.00E+00  1.07E-09  4.30E-13  1.07E-09  0.50689
      4. 2500.000  1.34E-09  2.14E-12  2.20E-09  3.52E-12  0.00E+00  0.00E+00  3.54E-09  5.66E-12  8.15E-09  0.58739
      6. 1666.666  3.35E-09  1.21E-11  4.29E-09  1.54E-11  0.00E+00  0.00E+00  7.64E-09  2.75E-11  2.34E-08  0.57335
      8. 1250.000  6.37E-09  4.08E-11  6.96E-09  4.45E-11  0.00E+00  0.00E+00  1.33E-08  8.53E-11  5.01E-08  0.52944
     10. 1000.000  1.39E-08  1.39E-10  6.57E-09  6.57E-11  0.00E+00  0.00E+00  2.05E-08  2.05E-10  9.10E-08  0.35644
     12.  833.333  2.58E-08  3.71E-10  2.86E-09  4.11E-11  0.00E+00  0.00E+00  2.86E-08  4.13E-10  1.48E-07  0.11579
     14.  714.286  3.72E-08  7.29E-10  7.44E-10  1.46E-11  0.00E+00  0.00E+00  3.79E-08  7.43E-10  2.24E-07  0.02181
     16.  625.000  4.82E-08  1.23E-09  1.40E-10  3.58E-12  0.00E+00  0.00E+00  4.83E-08  1.24E-09  3.21E-07  0.00336
     18.  555.555  5.85E-08  1.90E-09  1.01E-11  3.27E-13  0.00E+00  0.00E+00  5.85E-08  1.90E-09  4.38E-07  0.00017
     20.  500.000  7.28E-08  2.91E-09  1.18E-11  4.72E-13  0.00E+00  0.00E+00  7.28E-08  2.91E-09  5.84E-07  0.00014
     22.  454.545  9.03E-08  4.37E-09  2.86E-11  1.38E-12  0.00E+00  0.00E+00  9.03E-08  4.37E-09  7.64E-07  0.00030
     24.  416.667  1.04E-07  5.97E-09  1.42E-11  8.21E-13  0.00E+00  0.00E+00  1.04E-07  5.97E-09  9.71E-07  0.00014
     26.  384.615  1.20E-07  8.08E-09  2.36E-12  1.59E-13  0.00E+00  0.00E+00  1.20E-07  8.08E-09  1.21E-06  0.00002
     28.  357.143  1.42E-07  1.12E-08  9.80E-12  7.68E-13  0.00E+00  0.00E+00  1.42E-07  1.12E-08  1.50E-06  0.00006
     30.  333.333  1.62E-07  1.45E-08  6.20E-12  5.58E-13  0.00E+00  0.00E+00  1.62E-07  1.45E-08  1.82E-06  0.00004
     32.  312.500  1.76E-07  1.80E-08  6.98E-14  7.15E-15  0.00E+00  0.00E+00  1.76E-07  1.80E-08  2.17E-06  0.00000
     34.  294.118  1.95E-07  2.26E-08  1.40E-18  1.62E-19  0.00E+00  0.00E+00  1.95E-07  2.26E-08  2.56E-06  0.00000
     36.  277.778  2.12E-07  2.75E-08  4.47E-23  5.79E-24  0.00E+00  0.00E+00  2.12E-07  2.75E-08  2.98E-06  0.00000
     38.  263.158  2.30E-07  3.32E-08  1.08E-34  1.56E-35  0.00E+00  0.00E+00  2.30E-07  3.32E-08  3.44E-06  0.00000
     40.  250.000  2.55E-07  4.09E-08  5.47E-30  8.76E-31  0.00E+00  0.00E+00  2.55E-07  4.09E-08  3.96E-06  0.00000
     42.  238.095  2.90E-07  5.11E-08  7.18E-22  1.27E-22  0.00E+00  0.00E+00  2.90E-07  5.11E-08  4.53E-06  0.00000
     44.  227.273  3.22E-07  6.23E-08  1.90E-21  3.67E-22  0.00E+00  0.00E+00  3.22E-07  6.23E-08  5.18E-06  0.00000
     46.  217.391  3.43E-07  7.26E-08  2.53E-20  5.36E-21  0.00E+00  0.00E+00  3.43E-07  7.26E-08  5.86E-06  0.00000
     48.  208.333  3.68E-07  8.47E-08  2.47E-20  5.70E-21  0.00E+00  0.00E+00  3.68E-07  8.47E-08  6.60E-06  0.00000
     50.  200.000  4.04E-07  1.01E-07  6.51E-25  1.63E-25  0.00E+00  0.00E+00  4.04E-07  1.01E-07  7.41E-06  0.00000
     52.  192.308  4.26E-07  1.15E-07  2.16E-25  5.85E-26  0.00E+00  0.00E+00  4.26E-07  1.15E-07  8.26E-06  0.00000
     54.  185.185  4.43E-07  1.29E-07  5.11E-40  1.49E-40  0.00E+00  0.00E+00  4.43E-07  1.29E-07  9.15E-06  0.00000
     56.  178.571  4.66E-07  1.46E-07  0.00E+00  0.00E+00  0.00E+00  0.00E+00  4.66E-07  1.46E-07  1.01E-05  0.00000
     58.  172.414  4.99E-07  1.68E-07  0.00E+00  0.00E+00  0.00E+00  0.00E+00  4.99E-07  1.68E-07  1.11E-05  0.00000
     60.  166.667  5.38E-07  1.94E-07  4.94E-37  1.78E-37  0.00E+00  0.00E+00  5.38E-07  1.94E-07  1.22E-05  0.00000
     62.  161.290  5.71E-07  2.20E-07  1.52E-36  5.85E-37  0.00E+00  0.00E+00  5.71E-07  2.20E-07  1.33E-05  0.00000
     64.  156.250  6.06E-07  2.48E-07  6.68E-37  2.74E-37  0.00E+00  0.00E+00  6.06E-07  2.48E-07  1.45E-05  0.00000
     66.  151.515  6.51E-07  2.84E-07  2.11E-37  9.20E-38  0.00E+00  0.00E+00  6.51E-07  2.84E-07  1.58E-05  0.00000
     68.  147.059  6.79E-07  3.14E-07  5.75E-38  2.66E-38  0.00E+00  0.00E+00  6.79E-07  3.14E-07  1.72E-05  0.00000
     70.  142.857  7.10E-07  3.48E-07  2.05E-41  1.00E-41  0.00E+00  0.00E+00  7.10E-07  3.48E-07  1.86E-05  0.00000
     72.  138.889  7.36E-07  3.81E-07  0.00E+00  0.00E+00  0.00E+00  0.00E+00  7.36E-07  3.81E-07  2.01E-05  0.00000
     74.  135.135  7.65E-07  4.19E-07  0.00E+00  0.00E+00  0.00E+00  0.00E+00  7.65E-07  4.19E-07  2.16E-05  0.00000
     76.  131.579  8.08E-07  4.67E-07  0.00E+00  0.00E+00  0.00E+00  0.00E+00  8.08E-07  4.67E-07  2.32E-05  0.00000
     78.  128.205  8.46E-07  5.15E-07  0.00E+00  0.00E+00  0.00E+00  0.00E+00  8.46E-07  5.15E-07  2.49E-05  0.00000
     80.  125.000  8.80E-07  5.63E-07  0.00E+00  0.00E+00  0.00E+00  0.00E+00  8.80E-07  5.63E-07  2.67E-05  0.00000
     82.  121.951  9.25E-07  6.22E-07  0.00E+00  0.00E+00  0.00E+00  0.00E+00  9.25E-07  6.22E-07  2.85E-05  0.00000
     84.  119.048  9.81E-07  6.92E-07  0.00E+00  0.00E+00  0.00E+00  0.00E+00  9.81E-07  6.92E-07  3.05E-05  0.00000
     86.  116.279  1.01E-06  7.48E-07  0.00E+00  0.00E+00  0.00E+00  0.00E+00  1.01E-06  7.48E-07  3.25E-05  0.00000
     88.  113.636  1.03E-06  7.98E-07  0.00E+00  0.00E+00  0.00E+00  0.00E+00  1.03E-06  7.98E-07  3.45E-05  0.00000
     90.  111.111  1.07E-06  8.68E-07  0.00E+00  0.00E+00  0.00E+00  0.00E+00  1.07E-06  8.68E-07  3.67E-05  0.00000
     92.  108.696  1.11E-06  9.40E-07  0.00E+00  0.00E+00  0.00E+00  0.00E+00  1.11E-06  9.40E-07  3.89E-05  0.00000
     94.  106.383  1.16E-06  1.02E-06  0.00E+00  0.00E+00  0.00E+00  0.00E+00  1.16E-06  1.02E-06  4.12E-05  0.00000
     96.  104.167  1.20E-06  1.11E-06  0.00E+00  0.00E+00  0.00E+00  0.00E+00  1.20E-06  1.11E-06  4.36E-05  0.00000
     98.  102.041  1.24E-06  1.19E-06  0.00E+00  0.00E+00  0.00E+00  0.00E+00  1.24E-06  1.19E-06  4.61E-05  0.00000
    100.  100.000  1.27E-06  1.27E-06  0.00E+00  0.00E+00  0.00E+00  0.00E+00  1.27E-06  1.27E-06  4.86E-05  0.00000
  iv          105
1                                             RADIANCE(WATTS/CM2-STER-XXX)
0  FREQ   WAVLEN    PATH THERMAL      SURFACE EMISSION    SURFACE REFLECTED     TOTAL RADIANCE   INTEGRAL    TOTAL
  (CM-1) (MICRN)    (CM-1)   (MICRN)    (CM-1)   (MICRN)    (CM-1)   (MICRN)    (CM-1)   (MICRN)    (CM-1)   TRANS

    102.   98.039  1.32E-06  1.37E-06  0.00E+00  0.00E+00  0.00E+00  0.00E+00  1.32E-06  1.37E-06  5.13E-05  0.00000
    104.   96.154  1.36E-06  1.47E-06  0.00E+00  0.00E+00  0.00E+00  0.00E+00  1.36E-06  1.47E-06  5.40E-05  0.00000
    106.   94.340  1.40E-06  1.58E-06  0.00E+00  0.00E+00  0.00E+00  0.00E+00  1.40E-06  1.58E-06  5.68E-05  0.00000
    108.   92.593  1.47E-06  1.72E-06  0.00E+00  0.00E+00  0.00E+00  0.00E+00  1.47E-06  1.72E-06  5.98E-05  0.00000
    110.   90.909  1.51E-06  1.83E-06  0.00E+00  0.00E+00  0.00E+00  0.00E+00  1.51E-06  1.83E-06  6.28E-05  0.00000
    112.   89.286  1.56E-06  1.96E-06  0.00E+00  0.00E+00  0.00E+00  0.00E+00  1.56E-06  1.96E-06  6.59E-05  0.00000
    114.   87.719  1.65E-06  2.15E-06  0.00E+00  0.00E+00  0.00E+00  0.00E+00  1.65E-06  2.15E-06  6.92E-05  0.00000
    116.   86.207  1.69E-06  2.28E-06  0.00E+00  0.00E+00  0.00E+00  0.00E+00  1.69E-06  2.28E-06  7.26E-05  0.00000
    118.   84.746  1.70E-06  2.37E-06  0.00E+00  0.00E+00  0.00E+00  0.00E+00  1.70E-06  2.37E-06  7.60E-05  0.00000
    120.   83.333  1.71E-06  2.47E-06  0.00E+00  0.00E+00  0.00E+00  0.00E+00  1.71E-06  2.47E-06  7.94E-05  0.00000
    122.   81.967  1.75E-06  2.60E-06  0.00E+00  0.00E+00  0.00E+00  0.00E+00  1.75E-06  2.60E-06  8.29E-05  0.00000
    124.   80.645  1.81E-06  2.79E-06  0.00E+00  0.00E+00  0.00E+00  0.00E+00  1.81E-06  2.79E-06  8.65E-05  0.00000
    126.   79.365  1.84E-06  2.93E-06  0.00E+00  0.00E+00  0.00E+00  0.00E+00  1.84E-06  2.93E-06  9.02E-05  0.00000
    128.   78.125  1.90E-06  3.11E-06  0.00E+00  0.00E+00  0.00E+00  0.00E+00  1.90E-06  3.11E-06  9.40E-05  0.00000
    130.   76.923  1.96E-06  3.31E-06  0.00E+00  0.00E+00  0.00E+00  0.00E+00  1.96E-06  3.31E-06  9.79E-05  0.00000
    132.   75.758  1.98E-06  3.44E-06  0.00E+00  0.00E+00  0.00E+00  0.00E+00  1.98E-06  3.44E-06  1.02E-04  0.00000
    134.   74.627  2.04E-06  3.66E-06  0.00E+00  0.00E+00  0.00E+00  0.00E+00  2.04E-06  3.66E-06  1.06E-04  0.00000
    136.   73.529  2.12E-06  3.93E-06  0.00E+00  0.00E+00  0.00E+00  0.00E+00  2.12E-06  3.93E-06  1.10E-04  0.00000
    138.   72.464  2.13E-06  4.06E-06  0.00E+00  0.00E+00  0.00E+00  0.00E+00  2.13E-06  4.06E-06  1.14E-04  0.00000
    140.   71.429  2.15E-06  4.22E-06  0.00E+00  0.00E+00  0.00E+00  0.00E+00  2.15E-06  4.22E-06  1.19E-04  0.00000
    142.   70.423  2.26E-06  4.55E-06  0.00E+00  0.00E+00  0.00E+00  0.00E+00  2.26E-06  4.55E-06  1.23E-04  0.00000
    144.   69.444  2.36E-06  4.89E-06  0.00E+00  0.00E+00  0.00E+00  0.00E+00  2.36E-06  4.89E-06  1.28E-04  0.00000
    146.   68.493  2.38E-06  5.08E-06  0.00E+00  0.00E+00  0.00E+00  0.00E+00  2.38E-06  5.08E-06  1.33E-04  0.00000
    148.   67.568  2.36E-06  5.17E-06  0.00E+00  0.00E+00  0.00E+00  0.00E+00  2.36E-06  5.17E-06  1.38E-04  0.00000
    150.   66.667  2.36E-06  5.31E-06  0.00E+00  0.00E+00  0.00E+00  0.00E+00  2.36E-06  5.31E-06  1.42E-04  0.00000
    152.   65.789  2.41E-06  5.56E-06  0.00E+00  0.00E+00  0.00E+00  0.00E+00  2.41E-06  5.56E-06  1.47E-04  0.00000
    154.   64.935  2.48E-06  5.89E-06  0.00E+00  0.00E+00  0.00E+00  0.00E+00  2.48E-06  5.89E-06  1.52E-04  0.00000
    156.   64.103  2.55E-06  6.20E-06  0.00E+00  0.00E+00  0.00E+00  0.00E+00  2.55E-06  6.20E-06  1.57E-04  0.00000
    158.   63.291  2.59E-06  6.47E-06  0.00E+00  0.00E+00  0.00E+00  0.00E+00  2.59E-06  6.47E-06  1.62E-04  0.00000
    160.   62.500  2.70E-06  6.92E-06  0.00E+00  0.00E+00  0.00E+00  0.00E+00  2.70E-06  6.92E-06  1.68E-04  0.00000
    162.   61.728  2.80E-06  7.34E-06  0.00E+00  0.00E+00  0.00E+00  0.00E+00  2.80E-06  7.34E-06  1.73E-04  0.00000
    164.   60.976  2.86E-06  7.68E-06  0.00E+00  0.00E+00  0.00E+00  0.00E+00  2.86E-06  7.68E-06  1.79E-04  0.00000
    166.   60.241  2.83E-06  7.79E-06  0.00E+00  0.00E+00  0.00E+00  0.00E+00  2.83E-06  7.79E-06  1.85E-04  0.00000
    168.   59.524  2.82E-06  7.95E-06  0.00E+00  0.00E+00  0.00E+00  0.00E+00  2.82E-06  7.95E-06  1.90E-04  0.00000
    170.   58.824  2.83E-06  8.18E-06  0.00E+00  0.00E+00  0.00E+00  0.00E+00  2.83E-06  8.18E-06  1.96E-04  0.00000
    172.   58.140  2.88E-06  8.53E-06  0.00E+00  0.00E+00  0.00E+00  0.00E+00  2.88E-06  8.53E-06  2.02E-04  0.00000
    174.   57.471  2.94E-06  8.91E-06  0.00E+00  0.00E+00  0.00E+00  0.00E+00  2.94E-06  8.91E-06  2.08E-04  0.00000
    176.   56.818  2.98E-06  9.22E-06  0.00E+00  0.00E+00  0.00E+00  0.00E+00  2.98E-06  9.22E-06  2.14E-04  0.00000
    178.   56.180  3.02E-06  9.58E-06  0.00E+00  0.00E+00  0.00E+00  0.00E+00  3.02E-06  9.58E-06  2.20E-04  0.00000
    180.   55.556  3.12E-06  1.01E-05  0.00E+00  0.00E+00  0.00E+00  0.00E+00  3.12E-06  1.01E-05  2.26E-04  0.00000
    182.   54.945  3.20E-06  1.06E-05  0.00E+00  0.00E+00  0.00E+00  0.00E+00  3.20E-06  1.06E-05  2.32E-04  0.00000
    184.   54.348  3.32E-06  1.12E-05  0.00E+00  0.00E+00  0.00E+00  0.00E+00  3.32E-06  1.12E-05  2.39E-04  0.00000
    186.   53.763  3.36E-06  1.16E-05  1.47E-38  5.09E-38  0.00E+00  0.00E+00  3.36E-06  1.16E-05  2.46E-04  0.00000
    188.   53.191  3.31E-06  1.17E-05  4.42E-38  1.56E-37  0.00E+00  0.00E+00  3.31E-06  1.17E-05  2.52E-04  0.00000
    190.   52.632  3.44E-06  1.24E-05  1.47E-38  5.32E-38  0.00E+00  0.00E+00  3.44E-06  1.24E-05  2.59E-04  0.00000
    192.   52.083  3.51E-06  1.29E-05  0.00E+00  0.00E+00  0.00E+00  0.00E+00  3.51E-06  1.29E-05  2.66E-04  0.00000
    194.   51.546  3.48E-06  1.31E-05  0.00E+00  0.00E+00  0.00E+00  0.00E+00  3.48E-06  1.31E-05  2.73E-04  0.00000
    196.   51.020  3.54E-06  1.36E-05  0.00E+00  0.00E+00  0.00E+00  0.00E+00  3.54E-06  1.36E-05  2.80E-04  0.00000
    198.   50.505  3.60E-06  1.41E-05  0.00E+00  0.00E+00  0.00E+00  0.00E+00  3.60E-06  1.41E-05  2.87E-04  0.00000
    200.   50.000  3.57E-06  1.43E-05  0.00E+00  0.00E+00  0.00E+00  0.00E+00  3.57E-06  1.43E-05  2.95E-04  0.00000
  iv          205
1                                             RADIANCE(WATTS/CM2-STER-XXX)
0  FREQ   WAVLEN    PATH THERMAL      SURFACE EMISSION    SURFACE REFLECTED     TOTAL RADIANCE   INTEGRAL    TOTAL
  (CM-1) (MICRN)    (CM-1)   (MICRN)    (CM-1)   (MICRN)    (CM-1)   (MICRN)    (CM-1)   (MICRN)    (CM-1)   TRANS

    202.   49.505  3.51E-06  1.43E-05  0.00E+00  0.00E+00  0.00E+00  0.00E+00  3.51E-06  1.43E-05  3.02E-04  0.00000
    204.   49.020  3.58E-06  1.49E-05  0.00E+00  0.00E+00  0.00E+00  0.00E+00  3.58E-06  1.49E-05  3.09E-04  0.00000
    206.   48.544  3.68E-06  1.56E-05  0.00E+00  0.00E+00  0.00E+00  0.00E+00  3.68E-06  1.56E-05  3.16E-04  0.00000
    208.   48.077  3.66E-06  1.59E-05  0.00E+00  0.00E+00  0.00E+00  0.00E+00  3.66E-06  1.59E-05  3.23E-04  0.00000
    210.   47.619  3.78E-06  1.67E-05  0.00E+00  0.00E+00  0.00E+00  0.00E+00  3.78E-06  1.67E-05  3.31E-04  0.00000
    212.   47.170  3.87E-06  1.74E-05  0.00E+00  0.00E+00  0.00E+00  0.00E+00  3.87E-06  1.74E-05  3.39E-04  0.00000
    214.   46.729  3.87E-06  1.77E-05  0.00E+00  0.00E+00  0.00E+00  0.00E+00  3.87E-06  1.77E-05  3.46E-04  0.00000
    216.   46.296  4.04E-06  1.89E-05  2.98E-42  1.39E-41  0.00E+00  0.00E+00  4.04E-06  1.89E-05  3.55E-04  0.00000
    218.   45.872  4.18E-06  1.99E-05  6.00E-42  2.85E-41  0.00E+00  0.00E+00  4.18E-06  1.99E-05  3.63E-04  0.00000
    220.   45.455  4.09E-06  1.98E-05  1.51E-42  7.31E-42  0.00E+00  0.00E+00  4.09E-06  1.98E-05  3.71E-04  0.00000
    222.   45.045  3.97E-06  1.96E-05  0.00E+00  0.00E+00  0.00E+00  0.00E+00  3.97E-06  1.96E-05  3.79E-04  0.00000
    224.   44.643  4.02E-06  2.02E-05  0.00E+00  0.00E+00  0.00E+00  0.00E+00  4.02E-06  2.02E-05  3.87E-04  0.00000
    226.   44.248  4.01E-06  2.05E-05  0.00E+00  0.00E+00  0.00E+00  0.00E+00  4.01E-06  2.05E-05  3.95E-04  0.00000
    228.   43.860  4.06E-06  2.11E-05  0.00E+00  0.00E+00  0.00E+00  0.00E+00  4.06E-06  2.11E-05  4.03E-04  0.00000
    230.   43.478  4.24E-06  2.25E-05  0.00E+00  0.00E+00  0.00E+00  0.00E+00  4.24E-06  2.25E-05  4.12E-04  0.00000
    232.   43.103  4.38E-06  2.36E-05  8.95E-41  4.82E-40  0.00E+00  0.00E+00  4.38E-06  2.36E-05  4.20E-04  0.00000
    234.   42.735  4.54E-06  2.49E-05  6.42E-31  3.52E-30  0.00E+00  0.00E+00  4.54E-06  2.49E-05  4.30E-04  0.00000
    236.   42.373  4.68E-06  2.61E-05  4.40E-29  2.45E-28  0.00E+00  0.00E+00  4.68E-06  2.61E-05  4.39E-04  0.00000
    238.   42.017  4.75E-06  2.69E-05  1.16E-28  6.58E-28  0.00E+00  0.00E+00  4.75E-06  2.69E-05  4.48E-04  0.00000
    240.   41.667  4.79E-06  2.76E-05  5.98E-29  3.44E-28  0.00E+00  0.00E+00  4.79E-06  2.76E-05  4.58E-04  0.00000
    242.   41.322  4.75E-06  2.78E-05  2.98E-30  1.74E-29  0.00E+00  0.00E+00  4.75E-06  2.78E-05  4.67E-04  0.00000
    244.   40.984  4.53E-06  2.70E-05  1.97E-35  1.17E-34  0.00E+00  0.00E+00  4.53E-06  2.70E-05  4.77E-04  0.00000
    246.   40.650  4.38E-06  2.65E-05  1.51E-43  9.16E-43  0.00E+00  0.00E+00  4.38E-06  2.65E-05  4.85E-04  0.00000
    248.   40.323  4.45E-06  2.74E-05  4.53E-43  2.78E-42  0.00E+00  0.00E+00  4.45E-06  2.74E-05  4.94E-04  0.00000
    250.   40.000  4.65E-06  2.90E-05  1.51E-43  9.46E-43  0.00E+00  0.00E+00  4.65E-06  2.90E-05  5.03E-04  0.00000
    252.   39.683  4.62E-06  2.93E-05  2.85E-35  1.81E-34  0.00E+00  0.00E+00  4.62E-06  2.93E-05  5.13E-04  0.00000
    254.   39.370  4.55E-06  2.94E-05  8.56E-35  5.52E-34  0.00E+00  0.00E+00  4.55E-06  2.94E-05  5.22E-04  0.00000
    256.   39.063  4.79E-06  3.14E-05  3.28E-35  2.15E-34  0.00E+00  0.00E+00  4.79E-06  3.14E-05  5.31E-04  0.00000
    258.   38.760  5.08E-06  3.38E-05  1.14E-27  7.58E-27  0.00E+00  0.00E+00  5.08E-06  3.38E-05  5.42E-04  0.00000
    260.   38.462  5.24E-06  3.54E-05  1.92E-25  1.30E-24  0.00E+00  0.00E+00  5.24E-06  3.54E-05  5.52E-04  0.00000
    262.   38.168  5.27E-06  3.62E-05  4.31E-25  2.96E-24  0.00E+00  0.00E+00  5.27E-06  3.62E-05  5.63E-04  0.00000
    264.   37.879  5.21E-06  3.63E-05  2.58E-25  1.80E-24  0.00E+00  0.00E+00  5.21E-06  3.63E-05  5.73E-04  0.00000
    266.   37.594  5.07E-06  3.59E-05  4.04E-25  2.86E-24  0.00E+00  0.00E+00  5.07E-06  3.59E-05  5.83E-04  0.00000
    268.   37.313  5.25E-06  3.77E-05  5.20E-24  3.74E-23  0.00E+00  0.00E+00  5.25E-06  3.77E-05  5.94E-04  0.00000
    270.   37.037  5.48E-06  3.99E-05  1.62E-23  1.18E-22  0.00E+00  0.00E+00  5.48E-06  3.99E-05  6.05E-04  0.00000
    272.   36.765  5.48E-06  4.05E-05  7.17E-24  5.31E-23  0.00E+00  0.00E+00  5.48E-06  4.05E-05  6.16E-04  0.00000
    274.   36.496  5.37E-06  4.03E-05  1.06E-25  7.96E-25  0.00E+00  0.00E+00  5.37E-06  4.03E-05  6.26E-04  0.00000
    276.   36.232  5.09E-06  3.87E-05  1.90E-30  1.44E-29  0.00E+00  0.00E+00  5.09E-06  3.87E-05  6.36E-04  0.00000
    278.   35.971  4.91E-06  3.80E-05  0.00E+00  0.00E+00  0.00E+00  0.00E+00  4.91E-06  3.80E-05  6.46E-04  0.00000
    280.   35.714  4.95E-06  3.88E-05  3.68E-42  2.89E-41  0.00E+00  0.00E+00  4.95E-06  3.88E-05  6.56E-04  0.00000
    282.   35.461  5.05E-06  4.02E-05  1.10E-41  8.78E-41  0.00E+00  0.00E+00  5.05E-06  4.02E-05  6.66E-04  0.00000
    284.   35.211  5.39E-06  4.34E-05  3.76E-30  3.03E-29  0.00E+00  0.00E+00  5.39E-06  4.34E-05  6.77E-04  0.00000
    286.   34.965  5.63E-06  4.60E-05  1.14E-29  9.34E-29  0.00E+00  0.00E+00  5.63E-06  4.60E-05  6.88E-04  0.00000
    288.   34.722  5.44E-06  4.51E-05  2.12E-23  1.76E-22  0.00E+00  0.00E+00  5.44E-06  4.51E-05  6.99E-04  0.00000
    290.   34.483  5.35E-06  4.50E-05  2.12E-23  1.78E-22  0.00E+00  0.00E+00  5.35E-06  4.50E-05  7.10E-04  0.00000
    292.   34.247  5.77E-06  4.92E-05  2.08E-20  1.77E-19  0.00E+00  0.00E+00  5.77E-06  4.92E-05  7.21E-04  0.00000
    294.   34.014  6.01E-06  5.19E-05  1.03E-19  8.90E-19  0.00E+00  0.00E+00  6.01E-06  5.19E-05  7.33E-04  0.00000
    296.   33.784  5.99E-06  5.24E-05  7.59E-20  6.65E-19  0.00E+00  0.00E+00  5.99E-06  5.24E-05  7.45E-04  0.00000
    298.   33.557  5.87E-06  5.22E-05  7.02E-21  6.23E-20  0.00E+00  0.00E+00  5.87E-06  5.22E-05  7.57E-04  0.00000
    300.   33.333  5.70E-06  5.13E-05  5.00E-24  4.50E-23  0.00E+00  0.00E+00  5.70E-06  5.13E-05  7.69E-04  0.00000
  iv          305
1                                             RADIANCE(WATTS/CM2-STER-XXX)
0  FREQ   WAVLEN    PATH THERMAL      SURFACE EMISSION    SURFACE REFLECTED     TOTAL RADIANCE   INTEGRAL    TOTAL
  (CM-1) (MICRN)    (CM-1)   (MICRN)    (CM-1)   (MICRN)    (CM-1)   (MICRN)    (CM-1)   (MICRN)    (CM-1)   TRANS

    302.   33.113  5.37E-06  4.90E-05  9.18E-34  8.38E-33  0.00E+00  0.00E+00  5.37E-06  4.90E-05  7.79E-04  0.00000
    304.   32.895  5.51E-06  5.09E-05  1.29E-27  1.20E-26  0.00E+00  0.00E+00  5.51E-06  5.09E-05  7.90E-04  0.00000
    306.   32.680  6.01E-06  5.63E-05  1.76E-19  1.65E-18  0.00E+00  0.00E+00  6.01E-06  5.63E-05  8.02E-04  0.00000
    308.   32.468  6.23E-06  5.91E-05  5.19E-18  4.92E-17  0.00E+00  0.00E+00  6.23E-06  5.91E-05  8.15E-04  0.00000
    310.   32.258  6.32E-06  6.08E-05  1.58E-16  1.51E-15  0.00E+00  0.00E+00  6.32E-06  6.08E-05  8.27E-04  0.00000
    312.   32.051  6.38E-06  6.21E-05  2.28E-16  2.22E-15  0.00E+00  0.00E+00  6.38E-06  6.21E-05  8.40E-04  0.00000
    314.   31.847  6.12E-06  6.03E-05  5.34E-17  5.27E-16  0.00E+00  0.00E+00  6.12E-06  6.03E-05  8.52E-04  0.00000
    316.   31.646  6.14E-06  6.13E-05  3.94E-16  3.93E-15  0.00E+00  0.00E+00  6.14E-06  6.13E-05  8.65E-04  0.00000
    318.   31.447  6.52E-06  6.60E-05  1.99E-15  2.02E-14  0.00E+00  0.00E+00  6.52E-06  6.60E-05  8.78E-04  0.00000
    320.   31.250  6.51E-06  6.66E-05  1.26E-15  1.29E-14  0.00E+00  0.00E+00  6.51E-06  6.66E-05  8.91E-04  0.00000
    322.   31.056  6.12E-06  6.35E-05  1.87E-17  1.94E-16  0.00E+00  0.00E+00  6.12E-06  6.35E-05  9.03E-04  0.00000
    324.   30.864  5.84E-06  6.13E-05  3.02E-21  3.17E-20  0.00E+00  0.00E+00  5.84E-06  6.13E-05  9.15E-04  0.00000
    326.   30.675  5.97E-06  6.35E-05  1.02E-21  1.09E-20  0.00E+00  0.00E+00  5.97E-06  6.35E-05  9.27E-04  0.00000
    328.   30.488  5.94E-06  6.39E-05  4.66E-22  5.02E-21  0.00E+00  0.00E+00  5.94E-06  6.39E-05  9.39E-04  0.00000
    330.   30.303  6.44E-06  7.01E-05  1.65E-16  1.79E-15  0.00E+00  0.00E+00  6.44E-06  7.01E-05  9.51E-04  0.00000
    332.   30.120  6.70E-06  7.39E-05  4.69E-16  5.16E-15  0.00E+00  0.00E+00  6.70E-06  7.39E-05  9.65E-04  0.00000
    334.   29.940  6.29E-06  7.02E-05  1.69E-16  1.88E-15  0.00E+00  0.00E+00  6.29E-06  7.02E-05  9.77E-04  0.00000
    336.   29.762  6.23E-06  7.03E-05  3.11E-15  3.51E-14  0.00E+00  0.00E+00  6.23E-06  7.03E-05  9.90E-04  0.00000
    338.   29.586  6.75E-06  7.72E-05  1.78E-14  2.03E-13  0.00E+00  0.00E+00  6.75E-06  7.72E-05  1.00E-03  0.00000
    340.   29.412  6.61E-06  7.64E-05  1.23E-14  1.43E-13  0.00E+00  0.00E+00  6.61E-06  7.64E-05  1.02E-03  0.00000
    342.   29.240  6.56E-06  7.67E-05  4.67E-15  5.46E-14  0.00E+00  0.00E+00  6.56E-06  7.67E-05  1.03E-03  0.00000
    344.   29.070  6.81E-06  8.06E-05  9.29E-14  1.10E-12  0.00E+00  0.00E+00  6.81E-06  8.06E-05  1.04E-03  0.00000
    346.   28.902  6.93E-06  8.30E-05  2.38E-13  2.85E-12  0.00E+00  0.00E+00  6.93E-06  8.30E-05  1.06E-03  0.00000
    348.   28.736  6.74E-06  8.17E-05  1.34E-13  1.62E-12  0.00E+00  0.00E+00  6.74E-06  8.17E-05  1.07E-03  0.00000
    350.   28.571  6.29E-06  7.71E-05  1.55E-17  1.90E-16  0.00E+00  0.00E+00  6.29E-06  7.71E-05  1.08E-03  0.00000
    352.   28.409  6.23E-06  7.71E-05  3.08E-20  3.82E-19  0.00E+00  0.00E+00  6.23E-06  7.71E-05  1.10E-03  0.00000
    354.   28.249  6.30E-06  7.89E-05  1.57E-21  1.97E-20  0.00E+00  0.00E+00  6.30E-06  7.89E-05  1.11E-03  0.00000
    356.   28.090  6.36E-06  8.06E-05  7.81E-17  9.90E-16  0.00E+00  0.00E+00  6.36E-06  8.06E-05  1.12E-03  0.00000
    358.   27.933  6.59E-06  8.44E-05  1.80E-12  2.31E-11  0.00E+00  0.00E+00  6.59E-06  8.44E-05  1.13E-03  0.00000
    360.   27.778  7.25E-06  9.40E-05  1.12E-10  1.45E-09  0.00E+00  0.00E+00  7.25E-06  9.40E-05  1.15E-03  0.00001
    362.   27.624  7.53E-06  9.87E-05  6.75E-10  8.85E-09  0.00E+00  0.00E+00  7.53E-06  9.87E-05  1.16E-03  0.00008
    364.   27.473  7.64E-06  1.01E-04  2.35E-09  3.12E-08  0.00E+00  0.00E+00  7.64E-06  1.01E-04  1.18E-03  0.00028
    366.   27.322  7.71E-06  1.03E-04  3.00E-09  4.02E-08  0.00E+00  0.00E+00  7.72E-06  1.03E-04  1.19E-03  0.00035
    368.   27.174  7.34E-06  9.94E-05  1.06E-09  1.44E-08  0.00E+00  0.00E+00  7.34E-06  9.94E-05  1.21E-03  0.00013
    370.   27.027  7.00E-06  9.58E-05  3.88E-11  5.31E-10  0.00E+00  0.00E+00  7.00E-06  9.58E-05  1.22E-03  0.00000
    372.   26.882  7.30E-06  1.01E-04  4.17E-11  5.78E-10  0.00E+00  0.00E+00  7.30E-06  1.01E-04  1.24E-03  0.00000
    374.   26.738  6.83E-06  9.55E-05  1.37E-11  1.91E-10  0.00E+00  0.00E+00  6.83E-06  9.55E-05  1.25E-03  0.00000
    376.   26.596  6.81E-06  9.62E-05  3.46E-11  4.89E-10  0.00E+00  0.00E+00  6.81E-06  9.62E-05  1.27E-03  0.00000
    378.   26.455  7.52E-06  1.07E-04  1.67E-09  2.38E-08  0.00E+00  0.00E+00  7.52E-06  1.07E-04  1.28E-03  0.00019
    380.   26.316  7.86E-06  1.13E-04  6.55E-09  9.45E-08  0.00E+00  0.00E+00  7.87E-06  1.14E-04  1.30E-03  0.00075
    382.   26.178  7.79E-06  1.14E-04  5.63E-09  8.22E-08  0.00E+00  0.00E+00  7.80E-06  1.14E-04  1.31E-03  0.00065
    384.   26.042  7.11E-06  1.05E-04  9.70E-10  1.43E-08  0.00E+00  0.00E+00  7.11E-06  1.05E-04  1.33E-03  0.00011
    386.   25.907  7.12E-06  1.06E-04  3.49E-09  5.19E-08  0.00E+00  0.00E+00  7.12E-06  1.06E-04  1.34E-03  0.00040
    388.   25.773  7.93E-06  1.19E-04  2.88E-08  4.33E-07  0.00E+00  0.00E+00  7.95E-06  1.20E-04  1.36E-03  0.00327
    390.   25.641  8.16E-06  1.24E-04  5.28E-08  8.03E-07  0.00E+00  0.00E+00  8.21E-06  1.25E-04  1.37E-03  0.00600
    392.   25.510  8.03E-06  1.23E-04  3.26E-08  5.01E-07  0.00E+00  0.00E+00  8.06E-06  1.24E-04  1.39E-03  0.00370
    394.   25.381  7.45E-06  1.16E-04  4.15E-09  6.45E-08  0.00E+00  0.00E+00  7.45E-06  1.16E-04  1.40E-03  0.00047
    396.   25.253  6.86E-06  1.08E-04  8.73E-13  1.37E-11  0.00E+00  0.00E+00  6.86E-06  1.08E-04  1.42E-03  0.00000
    398.   25.126  6.72E-06  1.06E-04  2.63E-14  4.16E-13  0.00E+00  0.00E+00  6.72E-06  1.06E-04  1.43E-03  0.00000
    400.   25.000  7.29E-06  1.17E-04  6.55E-09  1.05E-07  0.00E+00  0.00E+00  7.29E-06  1.17E-04  1.44E-03  0.00073
  iv          405
1                                             RADIANCE(WATTS/CM2-STER-XXX)
0  FREQ   WAVLEN    PATH THERMAL      SURFACE EMISSION    SURFACE REFLECTED     TOTAL RADIANCE   INTEGRAL    TOTAL
  (CM-1) (MICRN)    (CM-1)   (MICRN)    (CM-1)   (MICRN)    (CM-1)   (MICRN)    (CM-1)   (MICRN)    (CM-1)   TRANS

    402.   24.876  8.10E-06  1.31E-04  8.46E-08  1.37E-06  0.00E+00  0.00E+00  8.18E-06  1.32E-04  1.46E-03  0.00945
    404.   24.752  8.27E-06  1.35E-04  1.98E-07  3.23E-06  0.00E+00  0.00E+00  8.47E-06  1.38E-04  1.48E-03  0.02209
    406.   24.631  8.21E-06  1.35E-04  3.34E-07  5.51E-06  0.00E+00  0.00E+00  8.54E-06  1.41E-04  1.50E-03  0.03717
    408.   24.510  8.16E-06  1.36E-04  4.92E-07  8.20E-06  0.00E+00  0.00E+00  8.65E-06  1.44E-04  1.51E-03  0.05465
    410.   24.390  8.15E-06  1.37E-04  5.32E-07  8.95E-06  0.00E+00  0.00E+00  8.68E-06  1.46E-04  1.53E-03  0.05897
    412.   24.272  8.21E-06  1.39E-04  4.72E-07  8.01E-06  0.00E+00  0.00E+00  8.68E-06  1.47E-04  1.55E-03  0.05215
    414.   24.155  8.30E-06  1.42E-04  2.52E-07  4.32E-06  0.00E+00  0.00E+00  8.56E-06  1.47E-04  1.56E-03  0.02785
    416.   24.038  8.01E-06  1.39E-04  4.64E-08  8.02E-07  0.00E+00  0.00E+00  8.05E-06  1.39E-04  1.58E-03  0.00511
    418.   23.923  7.04E-06  1.23E-04  1.90E-09  3.32E-08  0.00E+00  0.00E+00  7.04E-06  1.23E-04  1.59E-03  0.00021
    420.   23.810  7.09E-06  1.25E-04  5.82E-11  1.03E-09  0.00E+00  0.00E+00  7.09E-06  1.25E-04  1.61E-03  0.00001
    422.   23.697  7.82E-06  1.39E-04  2.43E-09  4.34E-08  0.00E+00  0.00E+00  7.82E-06  1.39E-04  1.62E-03  0.00027
    424.   23.585  8.00E-06  1.44E-04  1.06E-08  1.90E-07  0.00E+00  0.00E+00  8.01E-06  1.44E-04  1.64E-03  0.00115
    426.   23.474  8.10E-06  1.47E-04  1.49E-07  2.70E-06  0.00E+00  0.00E+00  8.25E-06  1.50E-04  1.66E-03  0.01617
    428.   23.364  8.18E-06  1.50E-04  5.27E-07  9.66E-06  0.00E+00  0.00E+00  8.71E-06  1.60E-04  1.67E-03  0.05738
    430.   23.256  8.09E-06  1.50E-04  4.19E-07  7.75E-06  0.00E+00  0.00E+00  8.51E-06  1.57E-04  1.69E-03  0.04556
    432.   23.148  8.09E-06  1.51E-04  3.83E-07  7.14E-06  0.00E+00  0.00E+00  8.47E-06  1.58E-04  1.71E-03  0.04150
    434.   23.041  8.16E-06  1.54E-04  5.35E-07  1.01E-05  0.00E+00  0.00E+00  8.69E-06  1.64E-04  1.73E-03  0.05798
    436.   22.936  8.20E-06  1.56E-04  3.60E-07  6.84E-06  0.00E+00  0.00E+00  8.56E-06  1.63E-04  1.74E-03  0.03888
    438.   22.831  8.03E-06  1.54E-04  8.46E-07  1.62E-05  0.00E+00  0.00E+00  8.88E-06  1.70E-04  1.76E-03  0.09128
    440.   22.727  7.93E-06  1.54E-04  6.92E-07  1.34E-05  0.00E+00  0.00E+00  8.62E-06  1.67E-04  1.78E-03  0.07466
    442.   22.624  7.75E-06  1.51E-04  1.02E-07  1.99E-06  0.00E+00  0.00E+00  7.85E-06  1.53E-04  1.79E-03  0.01098
    444.   22.523  8.01E-06  1.58E-04  2.19E-07  4.32E-06  0.00E+00  0.00E+00  8.23E-06  1.62E-04  1.81E-03  0.02356
    446.   22.422  8.19E-06  1.63E-04  4.57E-07  9.08E-06  0.00E+00  0.00E+00  8.65E-06  1.72E-04  1.83E-03  0.04904
    448.   22.321  7.72E-06  1.55E-04  1.17E-06  2.35E-05  0.00E+00  0.00E+00  8.89E-06  1.78E-04  1.85E-03  0.12565
    450.   22.222  7.67E-06  1.55E-04  1.39E-06  2.81E-05  0.00E+00  0.00E+00  9.05E-06  1.83E-04  1.86E-03  0.14856
    452.   22.124  8.13E-06  1.66E-04  5.61E-07  1.15E-05  0.00E+00  0.00E+00  8.69E-06  1.77E-04  1.88E-03  0.06007
    454.   22.026  8.34E-06  1.72E-04  3.22E-07  6.63E-06  0.00E+00  0.00E+00  8.66E-06  1.79E-04  1.90E-03  0.03438
    456.   21.930  7.96E-06  1.66E-04  1.62E-07  3.37E-06  0.00E+00  0.00E+00  8.13E-06  1.69E-04  1.91E-03  0.01730
    458.   21.834  7.56E-06  1.58E-04  5.97E-08  1.25E-06  0.00E+00  0.00E+00  7.62E-06  1.60E-04  1.93E-03  0.00636
    460.   21.739  8.16E-06  1.73E-04  3.80E-07  8.05E-06  0.00E+00  0.00E+00  8.55E-06  1.81E-04  1.95E-03  0.04053
    462.   21.645  7.70E-06  1.64E-04  1.34E-06  2.85E-05  0.00E+00  0.00E+00  9.04E-06  1.93E-04  1.96E-03  0.14213
    464.   21.552  6.87E-06  1.48E-04  2.35E-06  5.06E-05  0.00E+00  0.00E+00  9.22E-06  1.99E-04  1.98E-03  0.25029
    466.   21.459  7.22E-06  1.57E-04  1.87E-06  4.06E-05  0.00E+00  0.00E+00  9.09E-06  1.97E-04  2.00E-03  0.19900
    468.   21.368  8.02E-06  1.76E-04  8.21E-07  1.80E-05  0.00E+00  0.00E+00  8.84E-06  1.94E-04  2.02E-03  0.08723
    470.   21.277  8.07E-06  1.78E-04  6.16E-07  1.36E-05  0.00E+00  0.00E+00  8.69E-06  1.92E-04  2.04E-03  0.06539
    472.   21.186  7.70E-06  1.72E-04  1.71E-07  3.81E-06  0.00E+00  0.00E+00  7.87E-06  1.75E-04  2.05E-03  0.01813
    474.   21.097  7.78E-06  1.75E-04  5.40E-07  1.21E-05  0.00E+00  0.00E+00  8.32E-06  1.87E-04  2.07E-03  0.05721
    476.   21.008  7.26E-06  1.65E-04  1.85E-06  4.20E-05  0.00E+00  0.00E+00  9.12E-06  2.07E-04  2.09E-03  0.19639
    478.   20.921  6.08E-06  1.39E-04  3.21E-06  7.34E-05  0.00E+00  0.00E+00  9.29E-06  2.12E-04  2.11E-03  0.34027
    480.   20.833  6.39E-06  1.47E-04  2.88E-06  6.64E-05  0.00E+00  0.00E+00  9.27E-06  2.14E-04  2.12E-03  0.30497
    482.   20.747  7.48E-06  1.74E-04  1.35E-06  3.14E-05  0.00E+00  0.00E+00  8.83E-06  2.05E-04  2.14E-03  0.14278
    484.   20.661  7.88E-06  1.85E-04  4.91E-07  1.15E-05  0.00E+00  0.00E+00  8.37E-06  1.96E-04  2.16E-03  0.05187
    486.   20.576  7.26E-06  1.71E-04  1.67E-06  3.94E-05  0.00E+00  0.00E+00  8.92E-06  2.11E-04  2.18E-03  0.17608
    488.   20.492  5.70E-06  1.36E-04  3.62E-06  8.62E-05  0.00E+00  0.00E+00  9.32E-06  2.22E-04  2.19E-03  0.38243
    490.   20.408  5.99E-06  1.44E-04  3.22E-06  7.72E-05  0.00E+00  0.00E+00  9.20E-06  2.21E-04  2.21E-03  0.33970
    492.   20.325  7.39E-06  1.79E-04  1.42E-06  3.44E-05  0.00E+00  0.00E+00  8.81E-06  2.13E-04  2.23E-03  0.15015
    494.   20.243  6.41E-06  1.57E-04  2.72E-06  6.63E-05  0.00E+00  0.00E+00  9.13E-06  2.23E-04  2.25E-03  0.28698
    496.   20.161  4.54E-06  1.12E-04  4.86E-06  1.20E-04  0.00E+00  0.00E+00  9.40E-06  2.31E-04  2.27E-03  0.51301
    498.   20.080  4.49E-06  1.11E-04  4.92E-06  1.22E-04  0.00E+00  0.00E+00  9.41E-06  2.33E-04  2.29E-03  0.51956
    500.   20.000  6.09E-06  1.52E-04  3.05E-06  7.63E-05  0.00E+00  0.00E+00  9.14E-06  2.29E-04  2.31E-03  0.32213
  iv          505
1                                             RADIANCE(WATTS/CM2-STER-XXX)
0  FREQ   WAVLEN    PATH THERMAL      SURFACE EMISSION    SURFACE REFLECTED     TOTAL RADIANCE   INTEGRAL    TOTAL
  (CM-1) (MICRN)    (CM-1)   (MICRN)    (CM-1)   (MICRN)    (CM-1)   (MICRN)    (CM-1)   (MICRN)    (CM-1)   TRANS

    502.   19.920  7.78E-06  1.96E-04  8.07E-07  2.03E-05  0.00E+00  0.00E+00  8.58E-06  2.16E-04  2.32E-03  0.08515
    504.   19.841  7.90E-06  2.01E-04  9.52E-07  2.42E-05  0.00E+00  0.00E+00  8.85E-06  2.25E-04  2.34E-03  0.10047
    506.   19.763  7.82E-06  2.00E-04  8.27E-07  2.12E-05  0.00E+00  0.00E+00  8.64E-06  2.21E-04  2.36E-03  0.08725
    508.   19.685  7.16E-06  1.85E-04  1.65E-06  4.27E-05  0.00E+00  0.00E+00  8.81E-06  2.27E-04  2.37E-03  0.17463
    510.   19.608  6.55E-06  1.70E-04  2.68E-06  6.96E-05  0.00E+00  0.00E+00  9.23E-06  2.40E-04  2.39E-03  0.28250
    512.   19.531  5.87E-06  1.54E-04  3.38E-06  8.87E-05  0.00E+00  0.00E+00  9.25E-06  2.42E-04  2.41E-03  0.35708
    514.   19.455  5.90E-06  1.56E-04  3.39E-06  8.96E-05  0.00E+00  0.00E+00  9.29E-06  2.45E-04  2.43E-03  0.35819
    516.   19.380  7.67E-06  2.04E-04  1.05E-06  2.79E-05  0.00E+00  0.00E+00  8.72E-06  2.32E-04  2.45E-03  0.11059
    518.   19.305  8.16E-06  2.19E-04  1.58E-07  4.25E-06  0.00E+00  0.00E+00  8.32E-06  2.23E-04  2.46E-03  0.01671
    520.   19.231  7.32E-06  1.98E-04  1.35E-06  3.65E-05  0.00E+00  0.00E+00  8.67E-06  2.34E-04  2.48E-03  0.14249
    522.   19.157  5.41E-06  1.47E-04  3.80E-06  1.04E-04  0.00E+00  0.00E+00  9.21E-06  2.51E-04  2.50E-03  0.40210
    524.   19.084  6.25E-06  1.72E-04  2.78E-06  7.65E-05  0.00E+00  0.00E+00  9.04E-06  2.48E-04  2.52E-03  0.29431
    526.   19.011  7.16E-06  1.98E-04  1.48E-06  4.11E-05  0.00E+00  0.00E+00  8.64E-06  2.39E-04  2.54E-03  0.15695
    528.   18.939  5.10E-06  1.42E-04  4.06E-06  1.13E-04  0.00E+00  0.00E+00  9.16E-06  2.55E-04  2.55E-03  0.42971
    530.   18.868  3.37E-06  9.47E-05  6.02E-06  1.69E-04  0.00E+00  0.00E+00  9.39E-06  2.64E-04  2.57E-03  0.63702
    532.   18.797  3.12E-06  8.83E-05  6.27E-06  1.77E-04  0.00E+00  0.00E+00  9.39E-06  2.66E-04  2.59E-03  0.66399
    534.   18.727  4.21E-06  1.20E-04  5.05E-06  1.44E-04  0.00E+00  0.00E+00  9.26E-06  2.64E-04  2.61E-03  0.53498
    536.   18.657  5.68E-06  1.63E-04  3.32E-06  9.53E-05  0.00E+00  0.00E+00  9.00E-06  2.58E-04  2.63E-03  0.35147
    538.   18.587  4.38E-06  1.27E-04  4.85E-06  1.40E-04  0.00E+00  0.00E+00  9.23E-06  2.67E-04  2.65E-03  0.51497
    540.   18.519  4.02E-06  1.17E-04  5.23E-06  1.52E-04  0.00E+00  0.00E+00  9.24E-06  2.69E-04  2.66E-03  0.55459
    542.   18.450  4.49E-06  1.32E-04  4.72E-06  1.39E-04  0.00E+00  0.00E+00  9.21E-06  2.71E-04  2.68E-03  0.50167
    544.   18.382  5.37E-06  1.59E-04  3.49E-06  1.03E-04  0.00E+00  0.00E+00  8.86E-06  2.62E-04  2.70E-03  0.37123
    546.   18.315  7.32E-06  2.18E-04  1.17E-06  3.48E-05  0.00E+00  0.00E+00  8.49E-06  2.53E-04  2.72E-03  0.12416
    548.   18.248  6.50E-06  1.95E-04  2.37E-06  7.13E-05  0.00E+00  0.00E+00  8.88E-06  2.67E-04  2.74E-03  0.25264
    550.   18.182  5.43E-06  1.64E-04  3.59E-06  1.09E-04  0.00E+00  0.00E+00  9.03E-06  2.73E-04  2.75E-03  0.38301
    552.   18.116  4.26E-06  1.30E-04  4.95E-06  1.51E-04  0.00E+00  0.00E+00  9.22E-06  2.81E-04  2.77E-03  0.52835
    554.   18.051  4.51E-06  1.39E-04  4.61E-06  1.42E-04  0.00E+00  0.00E+00  9.12E-06  2.80E-04  2.79E-03  0.49211
    556.   17.986  4.27E-06  1.32E-04  4.84E-06  1.50E-04  0.00E+00  0.00E+00  9.11E-06  2.82E-04  2.81E-03  0.51710
    558.   17.921  2.92E-06  9.10E-05  6.35E-06  1.98E-04  0.00E+00  0.00E+00  9.28E-06  2.89E-04  2.83E-03  0.67930
    560.   17.857  2.41E-06  7.56E-05  6.88E-06  2.16E-04  0.00E+00  0.00E+00  9.29E-06  2.91E-04  2.85E-03  0.73613
    562.   17.794  3.61E-06  1.14E-04  5.49E-06  1.74E-04  0.00E+00  0.00E+00  9.10E-06  2.88E-04  2.86E-03  0.58848
    564.   17.730  4.49E-06  1.43E-04  4.57E-06  1.45E-04  0.00E+00  0.00E+00  9.06E-06  2.88E-04  2.88E-03  0.48998
    566.   17.668  5.16E-06  1.65E-04  3.74E-06  1.20E-04  0.00E+00  0.00E+00  8.90E-06  2.85E-04  2.90E-03  0.40152
    568.   17.606  7.24E-06  2.34E-04  1.28E-06  4.14E-05  0.00E+00  0.00E+00  8.52E-06  2.75E-04  2.92E-03  0.13779
    570.   17.544  6.86E-06  2.23E-04  1.86E-06  6.03E-05  0.00E+00  0.00E+00  8.72E-06  2.83E-04  2.93E-03  0.19977
    572.   17.483  4.52E-06  1.48E-04  4.50E-06  1.47E-04  0.00E+00  0.00E+00  9.03E-06  2.95E-04  2.95E-03  0.48531
    574.   17.422  4.13E-06  1.36E-04  4.78E-06  1.57E-04  0.00E+00  0.00E+00  8.91E-06  2.94E-04  2.97E-03  0.51529
    576.   17.361  6.01E-06  1.99E-04  2.55E-06  8.46E-05  0.00E+00  0.00E+00  8.56E-06  2.84E-04  2.99E-03  0.27510
    578.   17.301  5.72E-06  1.91E-04  2.95E-06  9.86E-05  0.00E+00  0.00E+00  8.67E-06  2.90E-04  3.00E-03  0.31900
    580.   17.241  5.86E-06  1.97E-04  2.57E-06  8.64E-05  0.00E+00  0.00E+00  8.43E-06  2.83E-04  3.02E-03  0.27783
    582.   17.182  6.08E-06  2.06E-04  2.17E-06  7.34E-05  0.00E+00  0.00E+00  8.25E-06  2.79E-04  3.04E-03  0.23480
    584.   17.123  5.85E-06  1.99E-04  2.40E-06  8.17E-05  0.00E+00  0.00E+00  8.24E-06  2.81E-04  3.05E-03  0.26010
    586.   17.065  5.85E-06  2.01E-04  2.16E-06  7.41E-05  0.00E+00  0.00E+00  8.00E-06  2.75E-04  3.07E-03  0.23441
    588.   17.007  5.53E-06  1.91E-04  2.37E-06  8.19E-05  0.00E+00  0.00E+00  7.89E-06  2.73E-04  3.09E-03  0.25772
    590.   16.949  6.32E-06  2.20E-04  1.27E-06  4.44E-05  0.00E+00  0.00E+00  7.60E-06  2.64E-04  3.10E-03  0.13884
    592.   16.892  6.84E-06  2.40E-04  4.82E-07  1.69E-05  0.00E+00  0.00E+00  7.32E-06  2.57E-04  3.12E-03  0.05263
    594.   16.835  6.59E-06  2.33E-04  3.89E-07  1.37E-05  0.00E+00  0.00E+00  6.98E-06  2.46E-04  3.13E-03  0.04249
    596.   16.779  6.20E-06  2.20E-04  2.86E-07  1.02E-05  0.00E+00  0.00E+00  6.48E-06  2.30E-04  3.14E-03  0.03135
    598.   16.722  6.14E-06  2.20E-04  4.55E-07  1.63E-05  0.00E+00  0.00E+00  6.60E-06  2.36E-04  3.16E-03  0.04996
    600.   16.667  6.35E-06  2.28E-04  6.41E-07  2.31E-05  0.00E+00  0.00E+00  6.99E-06  2.52E-04  3.17E-03  0.07044
  iv          605
1                                             RADIANCE(WATTS/CM2-STER-XXX)
0  FREQ   WAVLEN    PATH THERMAL      SURFACE EMISSION    SURFACE REFLECTED     TOTAL RADIANCE   INTEGRAL    TOTAL
  (CM-1) (MICRN)    (CM-1)   (MICRN)    (CM-1)   (MICRN)    (CM-1)   (MICRN)    (CM-1)   (MICRN)    (CM-1)   TRANS

    602.   16.611  6.19E-06  2.24E-04  5.16E-07  1.87E-05  0.00E+00  0.00E+00  6.70E-06  2.43E-04  3.18E-03  0.05675
    604.   16.556  6.17E-06  2.25E-04  2.88E-07  1.05E-05  0.00E+00  0.00E+00  6.45E-06  2.35E-04  3.20E-03  0.03173
    606.   16.502  6.03E-06  2.22E-04  2.12E-07  7.80E-06  0.00E+00  0.00E+00  6.24E-06  2.29E-04  3.21E-03  0.02343
    608.   16.447  5.96E-06  2.20E-04  1.90E-07  7.03E-06  0.00E+00  0.00E+00  6.15E-06  2.27E-04  3.22E-03  0.02101
    610.   16.393  6.07E-06  2.26E-04  2.57E-07  9.55E-06  0.00E+00  0.00E+00  6.32E-06  2.35E-04  3.23E-03  0.02845
    612.   16.340  6.06E-06  2.27E-04  2.98E-07  1.12E-05  0.00E+00  0.00E+00  6.36E-06  2.38E-04  3.25E-03  0.03308
    614.   16.287  5.82E-06  2.20E-04  1.33E-07  5.02E-06  0.00E+00  0.00E+00  5.96E-06  2.25E-04  3.26E-03  0.01479
    616.   16.234  5.31E-06  2.01E-04  2.67E-08  1.01E-06  0.00E+00  0.00E+00  5.33E-06  2.02E-04  3.27E-03  0.00296
    618.   16.181  5.14E-06  1.96E-04  1.29E-08  4.92E-07  0.00E+00  0.00E+00  5.15E-06  1.97E-04  3.28E-03  0.00144
    620.   16.129  5.59E-06  2.15E-04  4.93E-08  1.90E-06  0.00E+00  0.00E+00  5.64E-06  2.17E-04  3.29E-03  0.00551
    622.   16.077  5.58E-06  2.16E-04  5.62E-08  2.18E-06  0.00E+00  0.00E+00  5.64E-06  2.18E-04  3.30E-03  0.00629
    624.   16.026  5.33E-06  2.08E-04  2.94E-08  1.14E-06  0.00E+00  0.00E+00  5.36E-06  2.09E-04  3.31E-03  0.00329
    626.   15.974  5.14E-06  2.01E-04  3.34E-09  1.31E-07  0.00E+00  0.00E+00  5.14E-06  2.01E-04  3.32E-03  0.00038
    628.   15.924  4.95E-06  1.95E-04  1.11E-09  4.39E-08  0.00E+00  0.00E+00  4.95E-06  1.95E-04  3.33E-03  0.00013
    630.   15.873  4.83E-06  1.92E-04  2.85E-10  1.13E-08  0.00E+00  0.00E+00  4.83E-06  1.92E-04  3.34E-03  0.00003
    632.   15.823  4.75E-06  1.90E-04  4.24E-11  1.69E-09  0.00E+00  0.00E+00  4.75E-06  1.90E-04  3.35E-03  0.00000
    634.   15.773  4.67E-06  1.88E-04  5.50E-12  2.21E-10  0.00E+00  0.00E+00  4.67E-06  1.88E-04  3.36E-03  0.00000
    636.   15.723  4.61E-06  1.86E-04  2.09E-13  8.45E-12  0.00E+00  0.00E+00  4.61E-06  1.86E-04  3.37E-03  0.00000
    638.   15.674  4.57E-06  1.86E-04  7.39E-16  3.01E-14  0.00E+00  0.00E+00  4.57E-06  1.86E-04  3.38E-03  0.00000
    640.   15.625  4.54E-06  1.86E-04  6.03E-17  2.47E-15  0.00E+00  0.00E+00  4.54E-06  1.86E-04  3.39E-03  0.00000
    642.   15.576  4.52E-06  1.86E-04  1.00E-18  4.12E-17  0.00E+00  0.00E+00  4.52E-06  1.86E-04  3.40E-03  0.00000
    644.   15.528  4.51E-06  1.87E-04  4.83E-22  2.00E-20  0.00E+00  0.00E+00  4.51E-06  1.87E-04  3.41E-03  0.00000
    646.   15.480  4.51E-06  1.88E-04  1.37E-23  5.71E-22  0.00E+00  0.00E+00  4.51E-06  1.88E-04  3.42E-03  0.00000
    648.   15.432  4.62E-06  1.94E-04  5.82E-26  2.44E-24  0.00E+00  0.00E+00  4.62E-06  1.94E-04  3.43E-03  0.00000
    650.   15.385  4.61E-06  1.95E-04  4.76E-32  2.01E-30  0.00E+00  0.00E+00  4.61E-06  1.95E-04  3.43E-03  0.00000
    652.   15.337  4.47E-06  1.90E-04  1.50E-31  6.39E-30  0.00E+00  0.00E+00  4.47E-06  1.90E-04  3.44E-03  0.00000
    654.   15.291  4.42E-06  1.89E-04  7.14E-27  3.05E-25  0.00E+00  0.00E+00  4.42E-06  1.89E-04  3.45E-03  0.00000
    656.   15.244  4.41E-06  1.90E-04  7.14E-27  3.07E-25  0.00E+00  0.00E+00  4.41E-06  1.90E-04  3.46E-03  0.00000
    658.   15.198  4.41E-06  1.91E-04  2.97E-32  1.28E-30  0.00E+00  0.00E+00  4.41E-06  1.91E-04  3.47E-03  0.00000
    660.   15.152  4.38E-06  1.91E-04  1.91E-32  8.33E-31  0.00E+00  0.00E+00  4.38E-06  1.91E-04  3.48E-03  0.00000
    662.   15.106  4.46E-06  1.96E-04  9.71E-33  4.25E-31  0.00E+00  0.00E+00  4.46E-06  1.96E-04  3.49E-03  0.00000
    664.   15.060  4.45E-06  1.96E-04  0.00E+00  0.00E+00  0.00E+00  0.00E+00  4.45E-06  1.96E-04  3.50E-03  0.00000
    666.   15.015  4.82E-06  2.14E-04  0.00E+00  0.00E+00  0.00E+00  0.00E+00  4.82E-06  2.14E-04  3.51E-03  0.00000
    668.   14.970  5.50E-06  2.45E-04  0.00E+00  0.00E+00  0.00E+00  0.00E+00  5.50E-06  2.45E-04  3.52E-03  0.00000
    670.   14.925  4.81E-06  2.16E-04  0.00E+00  0.00E+00  0.00E+00  0.00E+00  4.81E-06  2.16E-04  3.53E-03  0.00000
    672.   14.881  4.32E-06  1.95E-04  5.52E-38  2.49E-36  0.00E+00  0.00E+00  4.32E-06  1.95E-04  3.54E-03  0.00000
    674.   14.837  4.28E-06  1.94E-04  2.04E-32  9.26E-31  0.00E+00  0.00E+00  4.28E-06  1.94E-04  3.54E-03  0.00000
    676.   14.793  4.23E-06  1.93E-04  6.11E-32  2.79E-30  0.00E+00  0.00E+00  4.23E-06  1.93E-04  3.55E-03  0.00000
    678.   14.749  4.23E-06  1.95E-04  2.04E-32  9.37E-31  0.00E+00  0.00E+00  4.23E-06  1.95E-04  3.56E-03  0.00000
    680.   14.706  4.21E-06  1.95E-04  2.75E-38  1.27E-36  0.00E+00  0.00E+00  4.21E-06  1.95E-04  3.57E-03  0.00000
    682.   14.663  4.18E-06  1.95E-04  7.22E-29  3.36E-27  0.00E+00  0.00E+00  4.18E-06  1.95E-04  3.58E-03  0.00000
    684.   14.620  4.14E-06  1.94E-04  2.53E-28  1.18E-26  0.00E+00  0.00E+00  4.14E-06  1.94E-04  3.59E-03  0.00000
    686.   14.577  4.13E-06  1.94E-04  1.82E-28  8.59E-27  0.00E+00  0.00E+00  4.13E-06  1.94E-04  3.59E-03  0.00000
    688.   14.535  4.11E-06  1.94E-04  1.31E-27  6.19E-26  0.00E+00  0.00E+00  4.11E-06  1.94E-04  3.60E-03  0.00000
    690.   14.493  4.09E-06  1.95E-04  4.52E-20  2.15E-18  0.00E+00  0.00E+00  4.09E-06  1.95E-04  3.61E-03  0.00000
    692.   14.451  4.05E-06  1.94E-04  5.90E-19  2.83E-17  0.00E+00  0.00E+00  4.05E-06  1.94E-04  3.62E-03  0.00000
    694.   14.409  4.03E-06  1.94E-04  2.03E-18  9.77E-17  0.00E+00  0.00E+00  4.03E-06  1.94E-04  3.63E-03  0.00000
    696.   14.368  4.01E-06  1.94E-04  1.34E-16  6.49E-15  0.00E+00  0.00E+00  4.01E-06  1.94E-04  3.64E-03  0.00000
    698.   14.327  4.01E-06  1.95E-04  1.80E-13  8.79E-12  0.00E+00  0.00E+00  4.01E-06  1.95E-04  3.64E-03  0.00000
    700.   14.286  4.02E-06  1.97E-04  5.82E-13  2.85E-11  0.00E+00  0.00E+00  4.02E-06  1.97E-04  3.65E-03  0.00000
  iv          705
1                                             RADIANCE(WATTS/CM2-STER-XXX)
0  FREQ   WAVLEN    PATH THERMAL      SURFACE EMISSION    SURFACE REFLECTED     TOTAL RADIANCE   INTEGRAL    TOTAL
  (CM-1) (MICRN)    (CM-1)   (MICRN)    (CM-1)   (MICRN)    (CM-1)   (MICRN)    (CM-1)   (MICRN)    (CM-1)   TRANS

    702.   14.245  4.02E-06  1.98E-04  3.65E-13  1.80E-11  0.00E+00  0.00E+00  4.02E-06  1.98E-04  3.66E-03  0.00000
    704.   14.205  4.11E-06  2.04E-04  4.93E-11  2.44E-09  0.00E+00  0.00E+00  4.11E-06  2.04E-04  3.67E-03  0.00001
    706.   14.164  4.23E-06  2.11E-04  3.09E-10  1.54E-08  0.00E+00  0.00E+00  4.23E-06  2.11E-04  3.68E-03  0.00004
    708.   14.124  4.31E-06  2.16E-04  1.66E-09  8.31E-08  0.00E+00  0.00E+00  4.31E-06  2.16E-04  3.68E-03  0.00021
    710.   14.085  4.37E-06  2.21E-04  7.54E-09  3.80E-07  0.00E+00  0.00E+00  4.38E-06  2.21E-04  3.69E-03  0.00094
    712.   14.045  4.52E-06  2.29E-04  2.10E-08  1.06E-06  0.00E+00  0.00E+00  4.54E-06  2.30E-04  3.70E-03  0.00263
    714.   14.006  4.66E-06  2.38E-04  3.66E-08  1.87E-06  0.00E+00  0.00E+00  4.70E-06  2.39E-04  3.71E-03  0.00460
    716.   13.966  4.68E-06  2.40E-04  4.71E-08  2.41E-06  0.00E+00  0.00E+00  4.72E-06  2.42E-04  3.72E-03  0.00592
    718.   13.928  4.34E-06  2.24E-04  2.04E-08  1.05E-06  0.00E+00  0.00E+00  4.36E-06  2.25E-04  3.73E-03  0.00256
    720.   13.889  4.03E-06  2.09E-04  9.38E-10  4.86E-08  0.00E+00  0.00E+00  4.03E-06  2.09E-04  3.74E-03  0.00012
    722.   13.850  4.53E-06  2.36E-04  1.05E-07  5.48E-06  0.00E+00  0.00E+00  4.63E-06  2.42E-04  3.75E-03  0.01337
    724.   13.812  4.89E-06  2.56E-04  3.65E-07  1.91E-05  0.00E+00  0.00E+00  5.26E-06  2.76E-04  3.76E-03  0.04648
    726.   13.774  4.92E-06  2.59E-04  6.36E-07  3.35E-05  0.00E+00  0.00E+00  5.55E-06  2.93E-04  3.77E-03  0.08123
    728.   13.736  4.94E-06  2.62E-04  4.26E-07  2.26E-05  0.00E+00  0.00E+00  5.37E-06  2.85E-04  3.78E-03  0.05454
    730.   13.699  4.85E-06  2.58E-04  2.29E-07  1.22E-05  0.00E+00  0.00E+00  5.08E-06  2.70E-04  3.79E-03  0.02946
    732.   13.661  4.83E-06  2.59E-04  2.18E-07  1.17E-05  0.00E+00  0.00E+00  5.05E-06  2.71E-04  3.80E-03  0.02818
    734.   13.624  4.84E-06  2.61E-04  2.56E-07  1.38E-05  0.00E+00  0.00E+00  5.09E-06  2.74E-04  3.81E-03  0.03314
    736.   13.587  4.82E-06  2.61E-04  2.82E-07  1.53E-05  0.00E+00  0.00E+00  5.10E-06  2.76E-04  3.82E-03  0.03658
    738.   13.550  4.82E-06  2.63E-04  2.65E-07  1.44E-05  0.00E+00  0.00E+00  5.09E-06  2.77E-04  3.83E-03  0.03449
    740.   13.514  4.70E-06  2.57E-04  1.88E-07  1.03E-05  0.00E+00  0.00E+00  4.89E-06  2.68E-04  3.84E-03  0.02457
    742.   13.477  4.54E-06  2.50E-04  4.45E-07  2.45E-05  0.00E+00  0.00E+00  4.98E-06  2.74E-04  3.85E-03  0.05838
    744.   13.441  4.64E-06  2.57E-04  1.01E-06  5.59E-05  0.00E+00  0.00E+00  5.65E-06  3.13E-04  3.86E-03  0.13293
    746.   13.405  4.52E-06  2.52E-04  1.43E-06  7.97E-05  0.00E+00  0.00E+00  5.96E-06  3.31E-04  3.87E-03  0.18891
    748.   13.369  4.33E-06  2.42E-04  1.75E-06  9.78E-05  0.00E+00  0.00E+00  6.08E-06  3.40E-04  3.89E-03  0.23143
    750.   13.333  4.06E-06  2.28E-04  2.12E-06  1.19E-04  0.00E+00  0.00E+00  6.18E-06  3.48E-04  3.90E-03  0.28144
    752.   13.298  3.86E-06  2.18E-04  2.48E-06  1.40E-04  0.00E+00  0.00E+00  6.34E-06  3.58E-04  3.91E-03  0.33048
    754.   13.263  3.90E-06  2.22E-04  2.55E-06  1.45E-04  0.00E+00  0.00E+00  6.45E-06  3.67E-04  3.92E-03  0.34151
    756.   13.228  3.66E-06  2.09E-04  2.87E-06  1.64E-04  0.00E+00  0.00E+00  6.53E-06  3.73E-04  3.94E-03  0.38497
    758.   13.193  2.89E-06  1.66E-04  3.80E-06  2.19E-04  0.00E+00  0.00E+00  6.70E-06  3.85E-04  3.95E-03  0.51238
    760.   13.158  2.22E-06  1.28E-04  4.69E-06  2.71E-04  0.00E+00  0.00E+00  6.91E-06  3.99E-04  3.96E-03  0.63323
    762.   13.123  1.82E-06  1.06E-04  5.18E-06  3.01E-04  0.00E+00  0.00E+00  7.00E-06  4.06E-04  3.98E-03  0.70190
    764.   13.089  1.49E-06  8.71E-05  5.56E-06  3.24E-04  0.00E+00  0.00E+00  7.05E-06  4.11E-04  3.99E-03  0.75588
    766.   13.055  1.24E-06  7.29E-05  5.85E-06  3.43E-04  0.00E+00  0.00E+00  7.09E-06  4.16E-04  4.01E-03  0.79869
    768.   13.021  1.27E-06  7.52E-05  5.83E-06  3.44E-04  0.00E+00  0.00E+00  7.11E-06  4.19E-04  4.02E-03  0.79893
    770.   12.987  1.23E-06  7.28E-05  5.87E-06  3.48E-04  0.00E+00  0.00E+00  7.10E-06  4.21E-04  4.03E-03  0.80723
    772.   12.953  7.94E-07  4.73E-05  6.32E-06  3.77E-04  0.00E+00  0.00E+00  7.12E-06  4.24E-04  4.05E-03  0.87218
    774.   12.920  7.65E-07  4.58E-05  6.34E-06  3.80E-04  0.00E+00  0.00E+00  7.11E-06  4.26E-04  4.06E-03  0.87797
    776.   12.887  1.20E-06  7.24E-05  5.87E-06  3.53E-04  0.00E+00  0.00E+00  7.07E-06  4.26E-04  4.08E-03  0.81492
    778.   12.853  1.05E-06  6.35E-05  6.01E-06  3.64E-04  0.00E+00  0.00E+00  7.06E-06  4.27E-04  4.09E-03  0.83808
    780.   12.821  6.11E-07  3.72E-05  6.45E-06  3.92E-04  0.00E+00  0.00E+00  7.06E-06  4.30E-04  4.11E-03  0.90278
    782.   12.788  6.93E-07  4.24E-05  6.33E-06  3.87E-04  0.00E+00  0.00E+00  7.02E-06  4.30E-04  4.12E-03  0.88932
    784.   12.755  1.16E-06  7.13E-05  5.81E-06  3.57E-04  0.00E+00  0.00E+00  6.97E-06  4.29E-04  4.13E-03  0.81951
    786.   12.723  6.54E-07  4.04E-05  6.34E-06  3.92E-04  0.00E+00  0.00E+00  6.99E-06  4.32E-04  4.15E-03  0.89693
    788.   12.690  3.11E-07  1.93E-05  6.68E-06  4.15E-04  0.00E+00  0.00E+00  7.00E-06  4.34E-04  4.16E-03  0.94945
    790.   12.658  8.86E-07  5.53E-05  5.93E-06  3.70E-04  0.00E+00  0.00E+00  6.82E-06  4.25E-04  4.17E-03  0.84495
    792.   12.626  1.87E-06  1.17E-04  4.67E-06  2.93E-04  0.00E+00  0.00E+00  6.54E-06  4.10E-04  4.19E-03  0.66777
    794.   12.594  1.46E-06  9.23E-05  5.27E-06  3.33E-04  0.00E+00  0.00E+00  6.74E-06  4.25E-04  4.20E-03  0.75771
    796.   12.563  1.36E-06  8.62E-05  5.44E-06  3.45E-04  0.00E+00  0.00E+00  6.80E-06  4.31E-04  4.21E-03  0.78430
    798.   12.531  1.52E-06  9.69E-05  5.24E-06  3.33E-04  0.00E+00  0.00E+00  6.76E-06  4.30E-04  4.23E-03  0.75764
    800.   12.500  1.11E-06  7.10E-05  5.65E-06  3.62E-04  0.00E+00  0.00E+00  6.76E-06  4.33E-04  4.24E-03  0.82177
  iv          805
1                                             RADIANCE(WATTS/CM2-STER-XXX)
0  FREQ   WAVLEN    PATH THERMAL      SURFACE EMISSION    SURFACE REFLECTED     TOTAL RADIANCE   INTEGRAL    TOTAL
  (CM-1) (MICRN)    (CM-1)   (MICRN)    (CM-1)   (MICRN)    (CM-1)   (MICRN)    (CM-1)   (MICRN)    (CM-1)   TRANS

    802.   12.469  6.37E-07  4.10E-05  6.15E-06  3.95E-04  0.00E+00  0.00E+00  6.78E-06  4.36E-04  4.26E-03  0.89627
    804.   12.438  8.08E-07  5.23E-05  5.94E-06  3.84E-04  0.00E+00  0.00E+00  6.75E-06  4.37E-04  4.27E-03  0.87032
    806.   12.407  6.05E-07  3.93E-05  6.13E-06  3.98E-04  0.00E+00  0.00E+00  6.74E-06  4.38E-04  4.28E-03  0.90110
    808.   12.376  6.74E-07  4.40E-05  6.04E-06  3.94E-04  0.00E+00  0.00E+00  6.71E-06  4.38E-04  4.30E-03  0.89069
    810.   12.346  4.40E-07  2.89E-05  6.26E-06  4.11E-04  0.00E+00  0.00E+00  6.70E-06  4.40E-04  4.31E-03  0.92741
    812.   12.315  3.57E-07  2.35E-05  6.33E-06  4.17E-04  0.00E+00  0.00E+00  6.69E-06  4.41E-04  4.32E-03  0.94098
    814.   12.285  5.27E-07  3.49E-05  6.13E-06  4.06E-04  0.00E+00  0.00E+00  6.66E-06  4.41E-04  4.34E-03  0.91557
    816.   12.255  4.01E-07  2.67E-05  6.24E-06  4.15E-04  0.00E+00  0.00E+00  6.64E-06  4.42E-04  4.35E-03  0.93514
    818.   12.225  2.11E-07  1.41E-05  6.41E-06  4.29E-04  0.00E+00  0.00E+00  6.62E-06  4.43E-04  4.36E-03  0.96503
    820.   12.195  1.83E-07  1.23E-05  6.42E-06  4.32E-04  0.00E+00  0.00E+00  6.60E-06  4.44E-04  4.38E-03  0.96987
    822.   12.165  1.64E-07  1.11E-05  6.42E-06  4.34E-04  0.00E+00  0.00E+00  6.58E-06  4.45E-04  4.39E-03  0.97321
    824.   12.136  2.32E-07  1.58E-05  6.32E-06  4.29E-04  0.00E+00  0.00E+00  6.55E-06  4.45E-04  4.40E-03  0.96264
    826.   12.107  3.15E-07  2.15E-05  6.21E-06  4.24E-04  0.00E+00  0.00E+00  6.53E-06  4.45E-04  4.42E-03  0.94966
    828.   12.077  3.72E-07  2.55E-05  6.13E-06  4.20E-04  0.00E+00  0.00E+00  6.50E-06  4.45E-04  4.43E-03  0.94038
    830.   12.048  1.99E-07  1.37E-05  6.28E-06  4.33E-04  0.00E+00  0.00E+00  6.48E-06  4.46E-04  4.44E-03  0.96798
    832.   12.019  1.16E-07  8.01E-06  6.34E-06  4.39E-04  0.00E+00  0.00E+00  6.46E-06  4.47E-04  4.45E-03  0.98139
    834.   11.990  1.19E-07  8.29E-06  6.31E-06  4.39E-04  0.00E+00  0.00E+00  6.43E-06  4.47E-04  4.47E-03  0.98071
    836.   11.962  1.31E-07  9.17E-06  6.27E-06  4.38E-04  0.00E+00  0.00E+00  6.40E-06  4.47E-04  4.48E-03  0.97860
    838.   11.933  1.92E-07  1.35E-05  6.18E-06  4.34E-04  0.00E+00  0.00E+00  6.37E-06  4.48E-04  4.49E-03  0.96848
    840.   11.905  3.35E-07  2.36E-05  6.01E-06  4.24E-04  0.00E+00  0.00E+00  6.34E-06  4.47E-04  4.51E-03  0.94479
    842.   11.876  2.53E-07  1.79E-05  6.06E-06  4.30E-04  0.00E+00  0.00E+00  6.31E-06  4.47E-04  4.52E-03  0.95726
    844.   11.848  1.66E-07  1.19E-05  6.12E-06  4.36E-04  0.00E+00  0.00E+00  6.28E-06  4.47E-04  4.53E-03  0.97025
    846.   11.820  1.59E-07  1.14E-05  6.09E-06  4.36E-04  0.00E+00  0.00E+00  6.25E-06  4.47E-04  4.54E-03  0.97058
    848.   11.792  2.36E-07  1.70E-05  5.98E-06  4.30E-04  0.00E+00  0.00E+00  6.22E-06  4.47E-04  4.56E-03  0.95743
    850.   11.765  4.97E-07  3.59E-05  5.69E-06  4.11E-04  0.00E+00  0.00E+00  6.18E-06  4.47E-04  4.57E-03  0.91351
    852.   11.737  6.81E-07  4.94E-05  5.48E-06  3.98E-04  0.00E+00  0.00E+00  6.16E-06  4.47E-04  4.58E-03  0.88356
    854.   11.710  4.65E-07  3.39E-05  5.68E-06  4.15E-04  0.00E+00  0.00E+00  6.15E-06  4.48E-04  4.59E-03  0.92104
    856.   11.682  2.23E-07  1.63E-05  5.91E-06  4.33E-04  0.00E+00  0.00E+00  6.14E-06  4.50E-04  4.60E-03  0.96214
    858.   11.655  1.02E-07  7.52E-06  6.01E-06  4.43E-04  0.00E+00  0.00E+00  6.12E-06  4.50E-04  4.62E-03  0.98266
    860.   11.628  9.55E-08  7.06E-06  6.00E-06  4.43E-04  0.00E+00  0.00E+00  6.09E-06  4.50E-04  4.63E-03  0.98403
    862.   11.601  8.59E-08  6.38E-06  5.98E-06  4.44E-04  0.00E+00  0.00E+00  6.07E-06  4.51E-04  4.64E-03  0.98563
    864.   11.574  1.57E-07  1.17E-05  5.88E-06  4.39E-04  0.00E+00  0.00E+00  6.04E-06  4.51E-04  4.65E-03  0.97344
    866.   11.547  1.54E-07  1.15E-05  5.86E-06  4.39E-04  0.00E+00  0.00E+00  6.01E-06  4.51E-04  4.67E-03  0.97397
    868.   11.521  8.20E-08  6.18E-06  5.90E-06  4.45E-04  0.00E+00  0.00E+00  5.99E-06  4.51E-04  4.68E-03  0.98606
    870.   11.494  1.95E-07  1.48E-05  5.76E-06  4.36E-04  0.00E+00  0.00E+00  5.95E-06  4.51E-04  4.69E-03  0.96592
    872.   11.468  2.00E-07  1.52E-05  5.73E-06  4.36E-04  0.00E+00  0.00E+00  5.93E-06  4.51E-04  4.70E-03  0.96493
    874.   11.442  8.47E-08  6.47E-06  5.82E-06  4.45E-04  0.00E+00  0.00E+00  5.91E-06  4.51E-04  4.71E-03  0.98517
    876.   11.416  8.60E-08  6.60E-06  5.79E-06  4.45E-04  0.00E+00  0.00E+00  5.88E-06  4.51E-04  4.72E-03  0.98479
    878.   11.390  1.44E-07  1.11E-05  5.71E-06  4.40E-04  0.00E+00  0.00E+00  5.85E-06  4.51E-04  4.74E-03  0.97433
    880.   11.364  1.66E-07  1.29E-05  5.66E-06  4.38E-04  0.00E+00  0.00E+00  5.82E-06  4.51E-04  4.75E-03  0.97025
    882.   11.338  1.47E-07  1.15E-05  5.65E-06  4.40E-04  0.00E+00  0.00E+00  5.80E-06  4.51E-04  4.76E-03  0.97337
    884.   11.312  1.79E-07  1.40E-05  5.59E-06  4.37E-04  0.00E+00  0.00E+00  5.77E-06  4.51E-04  4.77E-03  0.96759
    886.   11.287  2.50E-07  1.96E-05  5.49E-06  4.31E-04  0.00E+00  0.00E+00  5.74E-06  4.51E-04  4.78E-03  0.95422
    888.   11.261  2.54E-07  2.00E-05  5.46E-06  4.31E-04  0.00E+00  0.00E+00  5.71E-06  4.51E-04  4.79E-03  0.95319
    890.   11.236  1.33E-07  1.06E-05  5.56E-06  4.41E-04  0.00E+00  0.00E+00  5.70E-06  4.51E-04  4.81E-03  0.97549
    892.   11.211  9.59E-08  7.63E-06  5.58E-06  4.44E-04  0.00E+00  0.00E+00  5.67E-06  4.51E-04  4.82E-03  0.98217
    894.   11.186  7.67E-08  6.13E-06  5.57E-06  4.45E-04  0.00E+00  0.00E+00  5.65E-06  4.51E-04  4.83E-03  0.98563
    896.   11.161  8.00E-08  6.43E-06  5.54E-06  4.45E-04  0.00E+00  0.00E+00  5.62E-06  4.51E-04  4.84E-03  0.98503
    898.   11.136  8.33E-08  6.72E-06  5.51E-06  4.45E-04  0.00E+00  0.00E+00  5.60E-06  4.51E-04  4.85E-03  0.98441
    900.   11.111  7.65E-08  6.19E-06  5.49E-06  4.45E-04  0.00E+00  0.00E+00  5.57E-06  4.51E-04  4.86E-03  0.98559
  iv          905
1                                             RADIANCE(WATTS/CM2-STER-XXX)
0  FREQ   WAVLEN    PATH THERMAL      SURFACE EMISSION    SURFACE REFLECTED     TOTAL RADIANCE   INTEGRAL    TOTAL
  (CM-1) (MICRN)    (CM-1)   (MICRN)    (CM-1)   (MICRN)    (CM-1)   (MICRN)    (CM-1)   (MICRN)    (CM-1)   TRANS

    902.   11.086  7.49E-08  6.09E-06  5.47E-06  4.45E-04  0.00E+00  0.00E+00  5.54E-06  4.51E-04  4.87E-03  0.98579
    904.   11.062  8.55E-08  6.99E-06  5.43E-06  4.44E-04  0.00E+00  0.00E+00  5.52E-06  4.51E-04  4.88E-03  0.98364
    906.   11.038  1.08E-07  8.83E-06  5.38E-06  4.42E-04  0.00E+00  0.00E+00  5.49E-06  4.51E-04  4.89E-03  0.97931
    908.   11.013  2.19E-07  1.81E-05  5.24E-06  4.32E-04  0.00E+00  0.00E+00  5.46E-06  4.50E-04  4.91E-03  0.95747
    910.   10.989  2.15E-07  1.78E-05  5.22E-06  4.32E-04  0.00E+00  0.00E+00  5.43E-06  4.50E-04  4.92E-03  0.95761
    912.   10.965  1.04E-07  8.66E-06  5.30E-06  4.41E-04  0.00E+00  0.00E+00  5.41E-06  4.50E-04  4.93E-03  0.97838
    914.   10.941  1.11E-07  9.29E-06  5.27E-06  4.40E-04  0.00E+00  0.00E+00  5.38E-06  4.49E-04  4.94E-03  0.97654
    916.   10.917  1.11E-07  9.31E-06  5.24E-06  4.40E-04  0.00E+00  0.00E+00  5.35E-06  4.49E-04  4.95E-03  0.97631
    918.   10.893  1.20E-07  1.01E-05  5.21E-06  4.39E-04  0.00E+00  0.00E+00  5.33E-06  4.49E-04  4.96E-03  0.97450
    920.   10.870  1.56E-07  1.32E-05  5.14E-06  4.35E-04  0.00E+00  0.00E+00  5.30E-06  4.49E-04  4.97E-03  0.96669
    922.   10.846  2.35E-07  2.00E-05  5.03E-06  4.28E-04  0.00E+00  0.00E+00  5.27E-06  4.48E-04  4.98E-03  0.95006
    924.   10.823  2.30E-07  1.97E-05  5.01E-06  4.28E-04  0.00E+00  0.00E+00  5.24E-06  4.48E-04  4.99E-03  0.95146
    926.   10.799  1.89E-07  1.62E-05  5.03E-06  4.32E-04  0.00E+00  0.00E+00  5.22E-06  4.48E-04  5.00E-03  0.95972
    928.   10.776  1.30E-07  1.12E-05  5.07E-06  4.36E-04  0.00E+00  0.00E+00  5.20E-06  4.48E-04  5.01E-03  0.97078
    930.   10.753  1.39E-07  1.21E-05  5.03E-06  4.35E-04  0.00E+00  0.00E+00  5.17E-06  4.47E-04  5.02E-03  0.96865
    932.   10.730  1.41E-07  1.22E-05  5.01E-06  4.35E-04  0.00E+00  0.00E+00  5.15E-06  4.47E-04  5.03E-03  0.96862
    934.   10.707  1.42E-07  1.24E-05  4.98E-06  4.35E-04  0.00E+00  0.00E+00  5.13E-06  4.47E-04  5.04E-03  0.96863
    936.   10.684  1.47E-07  1.29E-05  4.95E-06  4.34E-04  0.00E+00  0.00E+00  5.10E-06  4.47E-04  5.05E-03  0.96761
    938.   10.661  1.56E-07  1.37E-05  4.92E-06  4.33E-04  0.00E+00  0.00E+00  5.08E-06  4.47E-04  5.06E-03  0.96549
    940.   10.638  1.98E-07  1.75E-05  4.84E-06  4.28E-04  0.00E+00  0.00E+00  5.04E-06  4.45E-04  5.07E-03  0.95526
    942.   10.616  2.37E-07  2.11E-05  4.77E-06  4.23E-04  0.00E+00  0.00E+00  5.01E-06  4.44E-04  5.08E-03  0.94528
    944.   10.593  2.26E-07  2.02E-05  4.76E-06  4.24E-04  0.00E+00  0.00E+00  4.98E-06  4.44E-04  5.09E-03  0.94768
    946.   10.571  2.77E-07  2.48E-05  4.68E-06  4.19E-04  0.00E+00  0.00E+00  4.96E-06  4.43E-04  5.10E-03  0.93631
    948.   10.549  3.83E-07  3.44E-05  4.54E-06  4.08E-04  0.00E+00  0.00E+00  4.92E-06  4.42E-04  5.11E-03  0.91203
    950.   10.526  2.69E-07  2.42E-05  4.64E-06  4.18E-04  0.00E+00  0.00E+00  4.91E-06  4.43E-04  5.12E-03  0.93709
    952.   10.504  2.07E-07  1.87E-05  4.68E-06  4.25E-04  0.00E+00  0.00E+00  4.89E-06  4.43E-04  5.13E-03  0.95140
    954.   10.482  2.39E-07  2.17E-05  4.62E-06  4.21E-04  0.00E+00  0.00E+00  4.86E-06  4.43E-04  5.14E-03  0.94392
    956.   10.460  2.21E-07  2.02E-05  4.62E-06  4.22E-04  0.00E+00  0.00E+00  4.84E-06  4.42E-04  5.15E-03  0.94751
    958.   10.438  1.43E-07  1.31E-05  4.69E-06  4.30E-04  0.00E+00  0.00E+00  4.83E-06  4.43E-04  5.16E-03  0.96609
    960.   10.417  9.48E-08  8.73E-06  4.72E-06  4.35E-04  0.00E+00  0.00E+00  4.82E-06  4.44E-04  5.17E-03  0.97817
    962.   10.395  8.73E-08  8.08E-06  4.70E-06  4.35E-04  0.00E+00  0.00E+00  4.79E-06  4.43E-04  5.18E-03  0.97951
    964.   10.373  1.38E-07  1.28E-05  4.62E-06  4.29E-04  0.00E+00  0.00E+00  4.75E-06  4.42E-04  5.19E-03  0.96602
    966.   10.352  1.99E-07  1.86E-05  4.52E-06  4.22E-04  0.00E+00  0.00E+00  4.72E-06  4.40E-04  5.20E-03  0.95036
    968.   10.331  2.30E-07  2.15E-05  4.46E-06  4.17E-04  0.00E+00  0.00E+00  4.68E-06  4.39E-04  5.21E-03  0.94164
    970.   10.309  2.63E-07  2.47E-05  4.39E-06  4.13E-04  0.00E+00  0.00E+00  4.65E-06  4.38E-04  5.22E-03  0.93294
    972.   10.288  3.25E-07  3.07E-05  4.29E-06  4.06E-04  0.00E+00  0.00E+00  4.62E-06  4.36E-04  5.23E-03  0.91680
    974.   10.267  3.01E-07  2.85E-05  4.30E-06  4.08E-04  0.00E+00  0.00E+00  4.60E-06  4.37E-04  5.24E-03  0.92301
    976.   10.246  3.31E-07  3.16E-05  4.24E-06  4.04E-04  0.00E+00  0.00E+00  4.57E-06  4.35E-04  5.25E-03  0.91372
    978.   10.225  2.56E-07  2.45E-05  4.30E-06  4.11E-04  0.00E+00  0.00E+00  4.55E-06  4.35E-04  5.25E-03  0.93148
    980.   10.204  2.00E-07  1.92E-05  4.33E-06  4.16E-04  0.00E+00  0.00E+00  4.53E-06  4.35E-04  5.26E-03  0.94379
    982.   10.183  1.99E-07  1.92E-05  4.30E-06  4.15E-04  0.00E+00  0.00E+00  4.50E-06  4.34E-04  5.27E-03  0.94196
    984.   10.163  1.62E-07  1.57E-05  4.31E-06  4.18E-04  0.00E+00  0.00E+00  4.47E-06  4.33E-04  5.28E-03  0.94930
    986.   10.142  1.28E-07  1.24E-05  4.31E-06  4.19E-04  0.00E+00  0.00E+00  4.44E-06  4.32E-04  5.29E-03  0.95396
    988.   10.121  1.32E-07  1.29E-05  4.26E-06  4.16E-04  0.00E+00  0.00E+00  4.39E-06  4.28E-04  5.30E-03  0.94695
    990.   10.101  1.40E-07  1.38E-05  4.20E-06  4.11E-04  0.00E+00  0.00E+00  4.34E-06  4.25E-04  5.31E-03  0.93847
    992.   10.081  1.59E-07  1.57E-05  4.11E-06  4.04E-04  0.00E+00  0.00E+00  4.27E-06  4.20E-04  5.32E-03  0.92357
    994.   10.060  1.81E-07  1.79E-05  4.02E-06  3.97E-04  0.00E+00  0.00E+00  4.20E-06  4.15E-04  5.33E-03  0.90802
    996.   10.040  2.20E-07  2.18E-05  3.89E-06  3.86E-04  0.00E+00  0.00E+00  4.11E-06  4.08E-04  5.33E-03  0.88333
    998.   10.020  2.82E-07  2.80E-05  3.72E-06  3.71E-04  0.00E+00  0.00E+00  4.01E-06  3.99E-04  5.34E-03  0.85011
   1000.   10.000  3.38E-07  3.38E-05  3.57E-06  3.57E-04  0.00E+00  0.00E+00  3.90E-06  3.90E-04  5.35E-03  0.81822
  iv         1005
1                                             RADIANCE(WATTS/CM2-STER-XXX)
0  FREQ   WAVLEN    PATH THERMAL      SURFACE EMISSION    SURFACE REFLECTED     TOTAL RADIANCE   INTEGRAL    TOTAL
  (CM-1) (MICRN)    (CM-1)   (MICRN)    (CM-1)   (MICRN)    (CM-1)   (MICRN)    (CM-1)   (MICRN)    (CM-1)   TRANS

   1002.    9.980  3.93E-07  3.95E-05  3.38E-06  3.39E-04  0.00E+00  0.00E+00  3.77E-06  3.79E-04  5.36E-03  0.77924
   1004.    9.960  4.56E-07  4.60E-05  3.20E-06  3.22E-04  0.00E+00  0.00E+00  3.65E-06  3.68E-04  5.36E-03  0.74140
   1006.    9.940  5.29E-07  5.35E-05  2.96E-06  3.00E-04  0.00E+00  0.00E+00  3.49E-06  3.53E-04  5.37E-03  0.69009
   1008.    9.921  5.73E-07  5.82E-05  2.82E-06  2.87E-04  0.00E+00  0.00E+00  3.39E-06  3.45E-04  5.38E-03  0.66091
   1010.    9.901  6.60E-07  6.74E-05  2.60E-06  2.65E-04  0.00E+00  0.00E+00  3.26E-06  3.33E-04  5.38E-03  0.61266
   1012.    9.881  7.43E-07  7.61E-05  2.36E-06  2.42E-04  0.00E+00  0.00E+00  3.10E-06  3.18E-04  5.39E-03  0.55857
   1014.    9.862  8.09E-07  8.31E-05  2.18E-06  2.24E-04  0.00E+00  0.00E+00  2.99E-06  3.07E-04  5.40E-03  0.51856
   1016.    9.843  8.34E-07  8.61E-05  2.06E-06  2.12E-04  0.00E+00  0.00E+00  2.89E-06  2.99E-04  5.40E-03  0.49267
   1018.    9.823  9.04E-07  9.37E-05  1.84E-06  1.91E-04  0.00E+00  0.00E+00  2.75E-06  2.85E-04  5.41E-03  0.44385
   1020.    9.804  9.41E-07  9.79E-05  1.70E-06  1.77E-04  0.00E+00  0.00E+00  2.64E-06  2.75E-04  5.41E-03  0.41078
   1022.    9.785  9.73E-07  1.02E-04  1.58E-06  1.65E-04  0.00E+00  0.00E+00  2.55E-06  2.67E-04  5.42E-03  0.38382
   1024.    9.766  9.90E-07  1.04E-04  1.51E-06  1.58E-04  0.00E+00  0.00E+00  2.49E-06  2.62E-04  5.42E-03  0.36807
   1026.    9.747  9.86E-07  1.04E-04  1.50E-06  1.58E-04  0.00E+00  0.00E+00  2.49E-06  2.62E-04  5.43E-03  0.36913
   1028.    9.728  1.02E-06  1.08E-04  1.42E-06  1.50E-04  0.00E+00  0.00E+00  2.44E-06  2.58E-04  5.43E-03  0.35134
   1030.    9.709  1.03E-06  1.10E-04  1.36E-06  1.44E-04  0.00E+00  0.00E+00  2.39E-06  2.53E-04  5.44E-03  0.33691
   1032.    9.690  9.91E-07  1.06E-04  1.40E-06  1.49E-04  0.00E+00  0.00E+00  2.39E-06  2.55E-04  5.44E-03  0.35021
   1034.    9.671  9.93E-07  1.06E-04  1.35E-06  1.45E-04  0.00E+00  0.00E+00  2.35E-06  2.51E-04  5.45E-03  0.34011
   1036.    9.653  1.03E-06  1.11E-04  1.23E-06  1.32E-04  0.00E+00  0.00E+00  2.26E-06  2.43E-04  5.45E-03  0.31050
   1038.    9.634  1.08E-06  1.17E-04  1.08E-06  1.16E-04  0.00E+00  0.00E+00  2.16E-06  2.33E-04  5.46E-03  0.27367
   1040.    9.615  1.09E-06  1.18E-04  1.03E-06  1.12E-04  0.00E+00  0.00E+00  2.12E-06  2.30E-04  5.46E-03  0.26359
   1042.    9.597  7.83E-07  8.50E-05  1.89E-06  2.05E-04  0.00E+00  0.00E+00  2.67E-06  2.90E-04  5.47E-03  0.48558
   1044.    9.579  5.69E-07  6.20E-05  2.47E-06  2.69E-04  0.00E+00  0.00E+00  3.04E-06  3.31E-04  5.47E-03  0.63701
   1046.    9.560  8.19E-07  8.97E-05  1.72E-06  1.88E-04  0.00E+00  0.00E+00  2.54E-06  2.78E-04  5.48E-03  0.44675
   1048.    9.542  1.04E-06  1.14E-04  1.13E-06  1.24E-04  0.00E+00  0.00E+00  2.17E-06  2.38E-04  5.48E-03  0.29392
   1050.    9.524  1.12E-06  1.24E-04  9.14E-07  1.01E-04  0.00E+00  0.00E+00  2.03E-06  2.24E-04  5.49E-03  0.23991
   1052.    9.506  1.13E-06  1.25E-04  8.35E-07  9.24E-05  0.00E+00  0.00E+00  1.97E-06  2.18E-04  5.49E-03  0.22040
   1054.    9.488  1.14E-06  1.27E-04  7.86E-07  8.74E-05  0.00E+00  0.00E+00  1.93E-06  2.14E-04  5.49E-03  0.20863
   1056.    9.470  1.13E-06  1.27E-04  7.96E-07  8.88E-05  0.00E+00  0.00E+00  1.93E-06  2.15E-04  5.50E-03  0.21250
   1058.    9.452  1.05E-06  1.18E-04  9.99E-07  1.12E-04  0.00E+00  0.00E+00  2.05E-06  2.29E-04  5.50E-03  0.26829
   1060.    9.434  9.47E-07  1.06E-04  1.26E-06  1.41E-04  0.00E+00  0.00E+00  2.21E-06  2.48E-04  5.51E-03  0.33986
   1062.    9.416  8.27E-07  9.33E-05  1.55E-06  1.75E-04  0.00E+00  0.00E+00  2.38E-06  2.68E-04  5.51E-03  0.42093
   1064.    9.398  6.75E-07  7.64E-05  2.00E-06  2.27E-04  0.00E+00  0.00E+00  2.68E-06  3.03E-04  5.52E-03  0.54713
   1066.    9.381  5.94E-07  6.75E-05  2.41E-06  2.74E-04  0.00E+00  0.00E+00  3.00E-06  3.41E-04  5.52E-03  0.66156
   1068.    9.363  4.41E-07  5.04E-05  2.78E-06  3.17E-04  0.00E+00  0.00E+00  3.22E-06  3.67E-04  5.53E-03  0.76599
   1070.    9.346  3.33E-07  3.81E-05  3.04E-06  3.48E-04  0.00E+00  0.00E+00  3.37E-06  3.86E-04  5.53E-03  0.84269
   1072.    9.328  3.27E-07  3.76E-05  3.12E-06  3.58E-04  0.00E+00  0.00E+00  3.44E-06  3.96E-04  5.54E-03  0.86933
   1074.    9.311  4.07E-07  4.69E-05  3.01E-06  3.47E-04  0.00E+00  0.00E+00  3.41E-06  3.94E-04  5.55E-03  0.84382
   1076.    9.294  3.78E-07  4.38E-05  3.01E-06  3.48E-04  0.00E+00  0.00E+00  3.39E-06  3.92E-04  5.56E-03  0.84929
   1078.    9.276  2.92E-07  3.39E-05  3.11E-06  3.61E-04  0.00E+00  0.00E+00  3.40E-06  3.95E-04  5.56E-03  0.88267
   1080.    9.259  3.30E-07  3.85E-05  3.02E-06  3.53E-04  0.00E+00  0.00E+00  3.35E-06  3.91E-04  5.57E-03  0.86249
   1082.    9.242  2.98E-07  3.49E-05  3.04E-06  3.56E-04  0.00E+00  0.00E+00  3.34E-06  3.91E-04  5.58E-03  0.87368
   1084.    9.225  2.22E-07  2.61E-05  3.14E-06  3.69E-04  0.00E+00  0.00E+00  3.36E-06  3.95E-04  5.58E-03  0.90673
   1086.    9.208  2.20E-07  2.59E-05  3.11E-06  3.67E-04  0.00E+00  0.00E+00  3.33E-06  3.93E-04  5.59E-03  0.90374
   1088.    9.191  1.82E-07  2.15E-05  3.13E-06  3.71E-04  0.00E+00  0.00E+00  3.31E-06  3.92E-04  5.60E-03  0.91413
   1090.    9.174  1.98E-07  2.36E-05  3.11E-06  3.70E-04  0.00E+00  0.00E+00  3.31E-06  3.93E-04  5.60E-03  0.91401
   1092.    9.158  1.74E-07  2.07E-05  3.13E-06  3.73E-04  0.00E+00  0.00E+00  3.30E-06  3.94E-04  5.61E-03  0.92387
   1094.    9.141  9.71E-08  1.16E-05  3.18E-06  3.81E-04  0.00E+00  0.00E+00  3.28E-06  3.92E-04  5.62E-03  0.94481
   1096.    9.124  8.03E-08  9.65E-06  3.19E-06  3.83E-04  0.00E+00  0.00E+00  3.27E-06  3.93E-04  5.62E-03  0.95332
   1098.    9.107  1.06E-07  1.28E-05  3.15E-06  3.79E-04  0.00E+00  0.00E+00  3.25E-06  3.92E-04  5.63E-03  0.94540
   1100.    9.091  2.38E-07  2.88E-05  2.98E-06  3.61E-04  0.00E+00  0.00E+00  3.22E-06  3.90E-04  5.63E-03  0.90142
  iv         1105
1                                             RADIANCE(WATTS/CM2-STER-XXX)
0  FREQ   WAVLEN    PATH THERMAL      SURFACE EMISSION    SURFACE REFLECTED     TOTAL RADIANCE   INTEGRAL    TOTAL
  (CM-1) (MICRN)    (CM-1)   (MICRN)    (CM-1)   (MICRN)    (CM-1)   (MICRN)    (CM-1)   (MICRN)    (CM-1)   TRANS

   1102.    9.074  1.90E-07  2.31E-05  3.02E-06  3.67E-04  0.00E+00  0.00E+00  3.21E-06  3.90E-04  5.64E-03  0.91732
   1104.    9.058  8.09E-08  9.86E-06  3.12E-06  3.81E-04  0.00E+00  0.00E+00  3.20E-06  3.91E-04  5.65E-03  0.95464
   1106.    9.042  1.96E-07  2.39E-05  2.99E-06  3.66E-04  0.00E+00  0.00E+00  3.19E-06  3.90E-04  5.65E-03  0.91891
   1108.    9.025  1.87E-07  2.30E-05  2.98E-06  3.66E-04  0.00E+00  0.00E+00  3.17E-06  3.89E-04  5.66E-03  0.92193
   1110.    9.009  1.36E-07  1.67E-05  3.01E-06  3.71E-04  0.00E+00  0.00E+00  3.15E-06  3.88E-04  5.67E-03  0.93618
   1112.    8.993  2.47E-07  3.05E-05  2.87E-06  3.54E-04  0.00E+00  0.00E+00  3.11E-06  3.85E-04  5.67E-03  0.89641
   1114.    8.977  1.25E-07  1.56E-05  2.97E-06  3.69E-04  0.00E+00  0.00E+00  3.10E-06  3.84E-04  5.68E-03  0.93524
   1116.    8.961  7.14E-08  8.90E-06  3.01E-06  3.75E-04  0.00E+00  0.00E+00  3.08E-06  3.83E-04  5.69E-03  0.95173
   1118.    8.945  8.71E-08  1.09E-05  2.96E-06  3.70E-04  0.00E+00  0.00E+00  3.05E-06  3.81E-04  5.69E-03  0.94164
   1120.    8.929  2.42E-07  3.04E-05  2.77E-06  3.48E-04  0.00E+00  0.00E+00  3.02E-06  3.78E-04  5.70E-03  0.88808
   1122.    8.913  2.47E-07  3.10E-05  2.75E-06  3.46E-04  0.00E+00  0.00E+00  2.99E-06  3.77E-04  5.70E-03  0.88504
   1124.    8.897  8.49E-08  1.07E-05  2.89E-06  3.65E-04  0.00E+00  0.00E+00  2.98E-06  3.76E-04  5.71E-03  0.93702
   1126.    8.881  7.25E-08  9.19E-06  2.89E-06  3.67E-04  0.00E+00  0.00E+00  2.96E-06  3.76E-04  5.72E-03  0.94237
   1128.    8.865  6.57E-08  8.36E-06  2.89E-06  3.68E-04  0.00E+00  0.00E+00  2.96E-06  3.76E-04  5.72E-03  0.94812
   1130.    8.850  6.63E-08  8.47E-06  2.88E-06  3.68E-04  0.00E+00  0.00E+00  2.95E-06  3.76E-04  5.73E-03  0.94930
   1132.    8.834  6.94E-08  8.89E-06  2.87E-06  3.68E-04  0.00E+00  0.00E+00  2.94E-06  3.76E-04  5.73E-03  0.95151
   1134.    8.818  2.54E-07  3.27E-05  2.65E-06  3.41E-04  0.00E+00  0.00E+00  2.91E-06  3.74E-04  5.74E-03  0.88545
   1136.    8.803  6.24E-07  8.05E-05  2.23E-06  2.88E-04  0.00E+00  0.00E+00  2.86E-06  3.69E-04  5.74E-03  0.74908
   1138.    8.787  3.28E-07  4.25E-05  2.55E-06  3.30E-04  0.00E+00  0.00E+00  2.88E-06  3.73E-04  5.75E-03  0.86152
   1140.    8.772  5.94E-08  7.72E-06  2.84E-06  3.69E-04  0.00E+00  0.00E+00  2.90E-06  3.77E-04  5.76E-03  0.96418
   1142.    8.757  4.88E-08  6.37E-06  2.83E-06  3.69E-04  0.00E+00  0.00E+00  2.88E-06  3.76E-04  5.76E-03  0.96753
   1144.    8.741  4.55E-08  5.95E-06  2.82E-06  3.69E-04  0.00E+00  0.00E+00  2.86E-06  3.75E-04  5.77E-03  0.96809
   1146.    8.726  4.63E-08  6.09E-06  2.80E-06  3.68E-04  0.00E+00  0.00E+00  2.85E-06  3.74E-04  5.77E-03  0.96842
   1148.    8.711  1.72E-07  2.26E-05  2.65E-06  3.49E-04  0.00E+00  0.00E+00  2.82E-06  3.72E-04  5.78E-03  0.92133
   1150.    8.696  2.47E-07  3.26E-05  2.56E-06  3.38E-04  0.00E+00  0.00E+00  2.80E-06  3.71E-04  5.78E-03  0.89452
   1152.    8.681  2.48E-07  3.29E-05  2.54E-06  3.38E-04  0.00E+00  0.00E+00  2.79E-06  3.71E-04  5.79E-03  0.89588
   1154.    8.666  1.18E-07  1.57E-05  2.67E-06  3.55E-04  0.00E+00  0.00E+00  2.78E-06  3.71E-04  5.80E-03  0.94454
   1156.    8.651  4.65E-08  6.21E-06  2.72E-06  3.64E-04  0.00E+00  0.00E+00  2.77E-06  3.70E-04  5.80E-03  0.96994
   1158.    8.636  4.35E-08  5.84E-06  2.71E-06  3.63E-04  0.00E+00  0.00E+00  2.75E-06  3.69E-04  5.81E-03  0.97133
   1160.    8.621  4.93E-08  6.64E-06  2.69E-06  3.62E-04  0.00E+00  0.00E+00  2.74E-06  3.68E-04  5.81E-03  0.96902
   1162.    8.606  5.39E-08  7.28E-06  2.67E-06  3.60E-04  0.00E+00  0.00E+00  2.72E-06  3.68E-04  5.82E-03  0.96854
   1164.    8.591  2.50E-07  3.39E-05  2.44E-06  3.31E-04  0.00E+00  0.00E+00  2.70E-06  3.65E-04  5.82E-03  0.89208
   1166.    8.576  3.11E-07  4.23E-05  2.37E-06  3.22E-04  0.00E+00  0.00E+00  2.68E-06  3.64E-04  5.83E-03  0.86869
   1168.    8.562  8.30E-08  1.13E-05  2.60E-06  3.54E-04  0.00E+00  0.00E+00  2.68E-06  3.66E-04  5.83E-03  0.95971
   1170.    8.547  5.54E-08  7.58E-06  2.61E-06  3.58E-04  0.00E+00  0.00E+00  2.67E-06  3.65E-04  5.84E-03  0.97080
   1172.    8.532  1.52E-07  2.09E-05  2.50E-06  3.43E-04  0.00E+00  0.00E+00  2.65E-06  3.64E-04  5.84E-03  0.93293
   1174.    8.518  5.91E-07  8.15E-05  1.99E-06  2.74E-04  0.00E+00  0.00E+00  2.58E-06  3.56E-04  5.85E-03  0.74775
   1176.    8.503  4.48E-07  6.20E-05  2.12E-06  2.94E-04  0.00E+00  0.00E+00  2.57E-06  3.56E-04  5.85E-03  0.80445
   1178.    8.489  7.39E-08  1.02E-05  2.54E-06  3.52E-04  0.00E+00  0.00E+00  2.61E-06  3.62E-04  5.86E-03  0.96557
   1180.    8.475  7.09E-08  9.87E-06  2.52E-06  3.51E-04  0.00E+00  0.00E+00  2.59E-06  3.61E-04  5.86E-03  0.96663
   1182.    8.460  6.12E-08  8.55E-06  2.52E-06  3.52E-04  0.00E+00  0.00E+00  2.58E-06  3.60E-04  5.87E-03  0.97117
   1184.    8.446  6.16E-08  8.64E-06  2.50E-06  3.51E-04  0.00E+00  0.00E+00  2.57E-06  3.60E-04  5.88E-03  0.97152
   1186.    8.432  3.90E-07  5.48E-05  2.12E-06  2.98E-04  0.00E+00  0.00E+00  2.51E-06  3.53E-04  5.88E-03  0.82641
   1188.    8.418  4.56E-07  6.43E-05  2.04E-06  2.87E-04  0.00E+00  0.00E+00  2.49E-06  3.52E-04  5.89E-03  0.80018
   1190.    8.403  1.28E-07  1.81E-05  2.39E-06  3.38E-04  0.00E+00  0.00E+00  2.52E-06  3.56E-04  5.89E-03  0.94357
   1192.    8.389  8.25E-08  1.17E-05  2.42E-06  3.44E-04  0.00E+00  0.00E+00  2.50E-06  3.55E-04  5.90E-03  0.96155
   1194.    8.375  6.59E-08  9.40E-06  2.42E-06  3.46E-04  0.00E+00  0.00E+00  2.49E-06  3.55E-04  5.90E-03  0.96980
   1196.    8.361  1.73E-07  2.47E-05  2.29E-06  3.27E-04  0.00E+00  0.00E+00  2.46E-06  3.52E-04  5.91E-03  0.92121
   1198.    8.347  4.31E-07  6.18E-05  1.99E-06  2.85E-04  0.00E+00  0.00E+00  2.42E-06  3.47E-04  5.91E-03  0.80431
   1200.    8.333  2.20E-07  3.16E-05  2.21E-06  3.18E-04  0.00E+00  0.00E+00  2.43E-06  3.50E-04  5.91E-03  0.90007
  iv         1205
1                                             RADIANCE(WATTS/CM2-STER-XXX)
0  FREQ   WAVLEN    PATH THERMAL      SURFACE EMISSION    SURFACE REFLECTED     TOTAL RADIANCE   INTEGRAL    TOTAL
  (CM-1) (MICRN)    (CM-1)   (MICRN)    (CM-1)   (MICRN)    (CM-1)   (MICRN)    (CM-1)   (MICRN)    (CM-1)   TRANS

   1202.    8.319  6.15E-08  8.89E-06  2.36E-06  3.41E-04  0.00E+00  0.00E+00  2.42E-06  3.50E-04  5.92E-03  0.96903
   1204.    8.306  6.36E-08  9.22E-06  2.35E-06  3.40E-04  0.00E+00  0.00E+00  2.41E-06  3.50E-04  5.92E-03  0.96904
   1206.    8.292  8.99E-08  1.31E-05  2.31E-06  3.36E-04  0.00E+00  0.00E+00  2.40E-06  3.49E-04  5.93E-03  0.95904
   1208.    8.278  8.88E-08  1.30E-05  2.29E-06  3.35E-04  0.00E+00  0.00E+00  2.38E-06  3.48E-04  5.93E-03  0.95870
   1210.    8.264  4.04E-07  5.92E-05  1.91E-06  2.80E-04  0.00E+00  0.00E+00  2.32E-06  3.39E-04  5.94E-03  0.80260
   1212.    8.251  7.45E-07  1.09E-04  1.51E-06  2.22E-04  0.00E+00  0.00E+00  2.26E-06  3.31E-04  5.94E-03  0.63908
   1214.    8.237  3.48E-07  5.13E-05  1.96E-06  2.89E-04  0.00E+00  0.00E+00  2.31E-06  3.41E-04  5.95E-03  0.83612
   1216.    8.224  1.66E-07  2.45E-05  2.14E-06  3.17E-04  0.00E+00  0.00E+00  2.31E-06  3.41E-04  5.95E-03  0.91744
   1218.    8.210  3.91E-07  5.80E-05  1.87E-06  2.77E-04  0.00E+00  0.00E+00  2.26E-06  3.35E-04  5.96E-03  0.80404
   1220.    8.197  4.59E-07  6.83E-05  1.76E-06  2.62E-04  0.00E+00  0.00E+00  2.22E-06  3.30E-04  5.96E-03  0.76250
   1222.    8.183  2.96E-07  4.42E-05  1.93E-06  2.88E-04  0.00E+00  0.00E+00  2.22E-06  3.32E-04  5.97E-03  0.84154
   1224.    8.170  5.69E-07  8.53E-05  1.61E-06  2.41E-04  0.00E+00  0.00E+00  2.18E-06  3.26E-04  5.97E-03  0.70559
   1226.    8.157  6.36E-07  9.56E-05  1.53E-06  2.30E-04  0.00E+00  0.00E+00  2.17E-06  3.26E-04  5.97E-03  0.67831
   1228.    8.143  2.84E-07  4.28E-05  1.89E-06  2.86E-04  0.00E+00  0.00E+00  2.18E-06  3.28E-04  5.98E-03  0.84283
   1230.    8.130  2.38E-07  3.61E-05  1.91E-06  2.88E-04  0.00E+00  0.00E+00  2.14E-06  3.24E-04  5.98E-03  0.85341
   1232.    8.117  1.17E-07  1.78E-05  2.06E-06  3.13E-04  0.00E+00  0.00E+00  2.18E-06  3.31E-04  5.99E-03  0.92964
   1234.    8.104  1.39E-07  2.11E-05  2.02E-06  3.07E-04  0.00E+00  0.00E+00  2.16E-06  3.28E-04  5.99E-03  0.91487
   1236.    8.091  3.56E-07  5.44E-05  1.70E-06  2.59E-04  0.00E+00  0.00E+00  2.05E-06  3.14E-04  6.00E-03  0.77407
   1238.    8.078  4.23E-07  6.48E-05  1.61E-06  2.48E-04  0.00E+00  0.00E+00  2.04E-06  3.12E-04  6.00E-03  0.74173
   1240.    8.065  3.65E-07  5.62E-05  1.69E-06  2.59E-04  0.00E+00  0.00E+00  2.05E-06  3.15E-04  6.00E-03  0.77914
   1242.    8.052  5.36E-07  8.27E-05  1.44E-06  2.22E-04  0.00E+00  0.00E+00  1.97E-06  3.04E-04  6.01E-03  0.66731
   1244.    8.039  8.53E-07  1.32E-04  1.03E-06  1.60E-04  0.00E+00  0.00E+00  1.89E-06  2.92E-04  6.01E-03  0.48400
   1246.    8.026  6.67E-07  1.03E-04  1.20E-06  1.86E-04  0.00E+00  0.00E+00  1.87E-06  2.90E-04  6.02E-03  0.56610
   1248.    8.013  4.77E-07  7.43E-05  1.39E-06  2.16E-04  0.00E+00  0.00E+00  1.86E-06  2.90E-04  6.02E-03  0.65753
   1250.    8.000  4.17E-07  6.52E-05  1.51E-06  2.36E-04  0.00E+00  0.00E+00  1.93E-06  3.01E-04  6.02E-03  0.72159
   1252.    7.987  4.78E-07  7.49E-05  1.44E-06  2.26E-04  0.00E+00  0.00E+00  1.92E-06  3.01E-04  6.03E-03  0.69110
   1254.    7.974  5.55E-07  8.73E-05  1.25E-06  1.96E-04  0.00E+00  0.00E+00  1.80E-06  2.84E-04  6.03E-03  0.60304
   1256.    7.962  4.14E-07  6.53E-05  1.47E-06  2.33E-04  0.00E+00  0.00E+00  1.89E-06  2.98E-04  6.03E-03  0.71723
   1258.    7.949  5.74E-07  9.08E-05  1.30E-06  2.05E-04  0.00E+00  0.00E+00  1.87E-06  2.96E-04  6.04E-03  0.63321
   1260.    7.937  9.89E-07  1.57E-04  6.20E-07  9.85E-05  0.00E+00  0.00E+00  1.61E-06  2.55E-04  6.04E-03  0.30500
   1262.    7.924  8.71E-07  1.39E-04  7.40E-07  1.18E-04  0.00E+00  0.00E+00  1.61E-06  2.57E-04  6.04E-03  0.36747
   1264.    7.911  7.55E-07  1.21E-04  9.75E-07  1.56E-04  0.00E+00  0.00E+00  1.73E-06  2.76E-04  6.05E-03  0.48617
   1266.    7.899  9.51E-07  1.52E-04  7.38E-07  1.18E-04  0.00E+00  0.00E+00  1.69E-06  2.71E-04  6.05E-03  0.37018
   1268.    7.886  1.09E-06  1.76E-04  4.51E-07  7.25E-05  0.00E+00  0.00E+00  1.54E-06  2.48E-04  6.05E-03  0.22770
   1270.    7.874  1.19E-06  1.93E-04  2.79E-07  4.50E-05  0.00E+00  0.00E+00  1.47E-06  2.38E-04  6.06E-03  0.14195
   1272.    7.862  1.02E-06  1.64E-04  5.18E-07  8.37E-05  0.00E+00  0.00E+00  1.53E-06  2.48E-04  6.06E-03  0.26577
   1274.    7.849  6.50E-07  1.05E-04  1.05E-06  1.71E-04  0.00E+00  0.00E+00  1.70E-06  2.76E-04  6.06E-03  0.54199
   1276.    7.837  5.07E-07  8.26E-05  1.13E-06  1.85E-04  0.00E+00  0.00E+00  1.64E-06  2.67E-04  6.07E-03  0.58875
   1278.    7.825  4.06E-07  6.63E-05  1.34E-06  2.19E-04  0.00E+00  0.00E+00  1.75E-06  2.85E-04  6.07E-03  0.70026
   1280.    7.813  5.93E-07  9.72E-05  1.19E-06  1.94E-04  0.00E+00  0.00E+00  1.78E-06  2.92E-04  6.07E-03  0.62287
   1282.    7.800  7.47E-07  1.23E-04  7.90E-07  1.30E-04  0.00E+00  0.00E+00  1.54E-06  2.53E-04  6.08E-03  0.41753
   1284.    7.788  7.12E-07  1.17E-04  8.76E-07  1.44E-04  0.00E+00  0.00E+00  1.59E-06  2.62E-04  6.08E-03  0.46679
   1286.    7.776  7.76E-07  1.28E-04  8.70E-07  1.44E-04  0.00E+00  0.00E+00  1.65E-06  2.72E-04  6.08E-03  0.46533
   1288.    7.764  9.62E-07  1.60E-04  4.41E-07  7.32E-05  0.00E+00  0.00E+00  1.40E-06  2.33E-04  6.09E-03  0.23814
   1290.    7.752  7.75E-07  1.29E-04  8.02E-07  1.33E-04  0.00E+00  0.00E+00  1.58E-06  2.63E-04  6.09E-03  0.43623
   1292.    7.740  6.14E-07  1.03E-04  1.03E-06  1.71E-04  0.00E+00  0.00E+00  1.64E-06  2.74E-04  6.09E-03  0.56058
   1294.    7.728  6.83E-07  1.14E-04  7.77E-07  1.30E-04  0.00E+00  0.00E+00  1.46E-06  2.45E-04  6.10E-03  0.42730
   1296.    7.716  8.83E-07  1.48E-04  5.15E-07  8.65E-05  0.00E+00  0.00E+00  1.40E-06  2.35E-04  6.10E-03  0.28479
   1298.    7.704  7.62E-07  1.28E-04  6.07E-07  1.02E-04  0.00E+00  0.00E+00  1.37E-06  2.31E-04  6.10E-03  0.33899
   1300.    7.692  6.57E-07  1.11E-04  6.39E-07  1.08E-04  0.00E+00  0.00E+00  1.30E-06  2.19E-04  6.10E-03  0.35840
  iv         1305
1                                             RADIANCE(WATTS/CM2-STER-XXX)
0  FREQ   WAVLEN    PATH THERMAL      SURFACE EMISSION    SURFACE REFLECTED     TOTAL RADIANCE   INTEGRAL    TOTAL
  (CM-1) (MICRN)    (CM-1)   (MICRN)    (CM-1)   (MICRN)    (CM-1)   (MICRN)    (CM-1)   (MICRN)    (CM-1)   TRANS

   1302.    7.680  7.44E-07  1.26E-04  3.10E-07  5.26E-05  0.00E+00  0.00E+00  1.05E-06  1.79E-04  6.11E-03  0.17477
   1304.    7.669  6.90E-07  1.17E-04  8.98E-08  1.53E-05  0.00E+00  0.00E+00  7.79E-07  1.33E-04  6.11E-03  0.05089
   1306.    7.657  7.16E-07  1.22E-04  1.79E-07  3.06E-05  0.00E+00  0.00E+00  8.96E-07  1.53E-04  6.11E-03  0.10306
   1308.    7.645  9.13E-07  1.56E-04  4.97E-07  8.51E-05  0.00E+00  0.00E+00  1.41E-06  2.41E-04  6.11E-03  0.28705
   1310.    7.634  8.41E-07  1.44E-04  7.07E-07  1.21E-04  0.00E+00  0.00E+00  1.55E-06  2.66E-04  6.12E-03  0.41013
   1312.    7.622  1.04E-06  1.79E-04  3.36E-07  5.79E-05  0.00E+00  0.00E+00  1.38E-06  2.37E-04  6.12E-03  0.19565
   1314.    7.610  1.23E-06  2.13E-04  1.07E-07  1.85E-05  0.00E+00  0.00E+00  1.34E-06  2.31E-04  6.12E-03  0.06312
   1316.    7.599  1.24E-06  2.15E-04  1.01E-07  1.76E-05  0.00E+00  0.00E+00  1.34E-06  2.32E-04  6.12E-03  0.05989
   1318.    7.587  1.17E-06  2.04E-04  3.42E-08  5.95E-06  0.00E+00  0.00E+00  1.21E-06  2.10E-04  6.13E-03  0.02034
   1320.    7.576  1.13E-06  1.97E-04  8.13E-08  1.42E-05  0.00E+00  0.00E+00  1.21E-06  2.11E-04  6.13E-03  0.04893
   1322.    7.564  9.82E-07  1.72E-04  3.27E-07  5.72E-05  0.00E+00  0.00E+00  1.31E-06  2.29E-04  6.13E-03  0.19798
   1324.    7.553  7.37E-07  1.29E-04  7.48E-07  1.31E-04  0.00E+00  0.00E+00  1.49E-06  2.60E-04  6.13E-03  0.45486
   1326.    7.541  6.65E-07  1.17E-04  7.23E-07  1.27E-04  0.00E+00  0.00E+00  1.39E-06  2.44E-04  6.14E-03  0.44167
   1328.    7.530  8.04E-07  1.42E-04  5.27E-07  9.29E-05  0.00E+00  0.00E+00  1.33E-06  2.35E-04  6.14E-03  0.32428
   1330.    7.519  7.90E-07  1.40E-04  6.41E-07  1.13E-04  0.00E+00  0.00E+00  1.43E-06  2.53E-04  6.14E-03  0.39762
   1332.    7.508  7.26E-07  1.29E-04  4.80E-07  8.52E-05  0.00E+00  0.00E+00  1.21E-06  2.14E-04  6.14E-03  0.29936
   1334.    7.496  8.51E-07  1.51E-04  4.35E-07  7.74E-05  0.00E+00  0.00E+00  1.29E-06  2.29E-04  6.15E-03  0.27324
   1336.    7.485  9.66E-07  1.72E-04  2.44E-07  4.36E-05  0.00E+00  0.00E+00  1.21E-06  2.16E-04  6.15E-03  0.15378
   1338.    7.474  8.51E-07  1.52E-04  1.01E-08  1.81E-06  0.00E+00  0.00E+00  8.61E-07  1.54E-04  6.15E-03  0.00639
   1340.    7.463  8.44E-07  1.52E-04  6.25E-09  1.12E-06  0.00E+00  0.00E+00  8.51E-07  1.53E-04  6.15E-03  0.00403
   1342.    7.452  8.44E-07  1.52E-04  1.08E-07  1.94E-05  0.00E+00  0.00E+00  9.52E-07  1.71E-04  6.16E-03  0.06984
   1344.    7.440  7.87E-07  1.42E-04  4.31E-07  7.79E-05  0.00E+00  0.00E+00  1.22E-06  2.20E-04  6.16E-03  0.28061
   1346.    7.429  7.73E-07  1.40E-04  4.37E-07  7.92E-05  0.00E+00  0.00E+00  1.21E-06  2.19E-04  6.16E-03  0.28544
   1348.    7.418  8.65E-07  1.57E-04  1.75E-07  3.18E-05  0.00E+00  0.00E+00  1.04E-06  1.89E-04  6.16E-03  0.11499
   1350.    7.407  9.60E-07  1.75E-04  1.60E-07  2.91E-05  0.00E+00  0.00E+00  1.12E-06  2.04E-04  6.16E-03  0.10610
   1352.    7.396  8.89E-07  1.63E-04  2.63E-07  4.82E-05  0.00E+00  0.00E+00  1.15E-06  2.11E-04  6.17E-03  0.17581
   1354.    7.386  9.40E-07  1.72E-04  1.57E-07  2.88E-05  0.00E+00  0.00E+00  1.10E-06  2.01E-04  6.17E-03  0.10525
   1356.    7.375  9.07E-07  1.67E-04  1.67E-07  3.08E-05  0.00E+00  0.00E+00  1.07E-06  1.98E-04  6.17E-03  0.11338
   1358.    7.364  9.58E-07  1.77E-04  2.06E-07  3.80E-05  0.00E+00  0.00E+00  1.16E-06  2.15E-04  6.17E-03  0.14035
   1360.    7.353  9.57E-07  1.77E-04  9.78E-08  1.81E-05  0.00E+00  0.00E+00  1.05E-06  1.95E-04  6.18E-03  0.06690
   1362.    7.342  8.22E-07  1.53E-04  1.16E-08  2.16E-06  0.00E+00  0.00E+00  8.34E-07  1.55E-04  6.18E-03  0.00798
   1364.    7.331  8.84E-07  1.65E-04  4.45E-08  8.28E-06  0.00E+00  0.00E+00  9.29E-07  1.73E-04  6.18E-03  0.03110
   1366.    7.321  1.01E-06  1.89E-04  1.55E-07  2.89E-05  0.00E+00  0.00E+00  1.17E-06  2.18E-04  6.18E-03  0.10834
   1368.    7.310  9.58E-07  1.79E-04  9.66E-08  1.81E-05  0.00E+00  0.00E+00  1.05E-06  1.97E-04  6.18E-03  0.06784
   1370.    7.299  1.00E-06  1.88E-04  4.78E-08  8.96E-06  0.00E+00  0.00E+00  1.05E-06  1.97E-04  6.19E-03  0.03394
   1372.    7.289  9.60E-07  1.81E-04  3.52E-08  6.62E-06  0.00E+00  0.00E+00  9.96E-07  1.87E-04  6.19E-03  0.02504
   1374.    7.278  7.36E-07  1.39E-04  1.53E-09  2.88E-07  0.00E+00  0.00E+00  7.37E-07  1.39E-04  6.19E-03  0.00109
   1376.    7.267  8.37E-07  1.58E-04  1.39E-08  2.64E-06  0.00E+00  0.00E+00  8.51E-07  1.61E-04  6.19E-03  0.01013
   1378.    7.257  9.83E-07  1.87E-04  3.55E-08  6.74E-06  0.00E+00  0.00E+00  1.02E-06  1.93E-04  6.19E-03  0.02591
   1380.    7.246  9.68E-07  1.84E-04  1.11E-07  2.12E-05  0.00E+00  0.00E+00  1.08E-06  2.06E-04  6.19E-03  0.08193
   1382.    7.236  9.85E-07  1.88E-04  1.85E-07  3.53E-05  0.00E+00  0.00E+00  1.17E-06  2.23E-04  6.20E-03  0.13655
   1384.    7.225  1.01E-06  1.93E-04  1.27E-07  2.44E-05  0.00E+00  0.00E+00  1.13E-06  2.17E-04  6.20E-03  0.09452
   1386.    7.215  8.39E-07  1.61E-04  3.30E-08  6.33E-06  0.00E+00  0.00E+00  8.72E-07  1.68E-04  6.20E-03  0.02458
   1388.    7.205  7.50E-07  1.45E-04  2.57E-09  4.96E-07  0.00E+00  0.00E+00  7.53E-07  1.45E-04  6.20E-03  0.00195
   1390.    7.194  9.40E-07  1.82E-04  1.03E-08  1.99E-06  0.00E+00  0.00E+00  9.51E-07  1.84E-04  6.20E-03  0.00784
   1392.    7.184  9.15E-07  1.77E-04  8.31E-09  1.61E-06  0.00E+00  0.00E+00  9.24E-07  1.79E-04  6.21E-03  0.00634
   1394.    7.174  6.66E-07  1.29E-04  1.40E-09  2.73E-07  0.00E+00  0.00E+00  6.67E-07  1.30E-04  6.21E-03  0.00107
   1396.    7.163  6.57E-07  1.28E-04  1.73E-11  3.38E-09  0.00E+00  0.00E+00  6.57E-07  1.28E-04  6.21E-03  0.00001
   1398.    7.153  6.66E-07  1.30E-04  9.84E-11  1.92E-08  0.00E+00  0.00E+00  6.66E-07  1.30E-04  6.21E-03  0.00008
   1400.    7.143  7.16E-07  1.40E-04  3.13E-09  6.14E-07  0.00E+00  0.00E+00  7.19E-07  1.41E-04  6.21E-03  0.00248
  iv         1405
1                                             RADIANCE(WATTS/CM2-STER-XXX)
0  FREQ   WAVLEN    PATH THERMAL      SURFACE EMISSION    SURFACE REFLECTED     TOTAL RADIANCE   INTEGRAL    TOTAL
  (CM-1) (MICRN)    (CM-1)   (MICRN)    (CM-1)   (MICRN)    (CM-1)   (MICRN)    (CM-1)   (MICRN)    (CM-1)   TRANS

   1402.    7.133  9.15E-07  1.80E-04  9.87E-09  1.94E-06  0.00E+00  0.00E+00  9.25E-07  1.82E-04  6.21E-03  0.00782
   1404.    7.123  7.94E-07  1.57E-04  4.53E-09  8.93E-07  0.00E+00  0.00E+00  7.99E-07  1.57E-04  6.22E-03  0.00360
   1406.    7.112  8.47E-07  1.67E-04  2.49E-08  4.92E-06  0.00E+00  0.00E+00  8.72E-07  1.72E-04  6.22E-03  0.02008
   1408.    7.102  9.72E-07  1.93E-04  6.16E-08  1.22E-05  0.00E+00  0.00E+00  1.03E-06  2.05E-04  6.22E-03  0.04977
   1410.    7.092  9.10E-07  1.81E-04  3.45E-08  6.85E-06  0.00E+00  0.00E+00  9.45E-07  1.88E-04  6.22E-03  0.02796
   1412.    7.082  8.72E-07  1.74E-04  2.60E-08  5.19E-06  0.00E+00  0.00E+00  8.98E-07  1.79E-04  6.22E-03  0.02138
   1414.    7.072  8.97E-07  1.79E-04  2.73E-08  5.46E-06  0.00E+00  0.00E+00  9.24E-07  1.85E-04  6.22E-03  0.02249
   1416.    7.062  7.37E-07  1.48E-04  5.16E-09  1.03E-06  0.00E+00  0.00E+00  7.43E-07  1.49E-04  6.23E-03  0.00426
   1418.    7.052  5.27E-07  1.06E-04  2.37E-11  4.76E-09  0.00E+00  0.00E+00  5.27E-07  1.06E-04  6.23E-03  0.00002
   1420.    7.042  5.10E-07  1.03E-04  5.36E-12  1.08E-09  0.00E+00  0.00E+00  5.10E-07  1.03E-04  6.23E-03  0.00000
   1422.    7.032  6.53E-07  1.32E-04  1.62E-11  3.27E-09  0.00E+00  0.00E+00  6.54E-07  1.32E-04  6.23E-03  0.00001
   1424.    7.022  6.43E-07  1.30E-04  5.19E-10  1.05E-07  0.00E+00  0.00E+00  6.44E-07  1.31E-04  6.23E-03  0.00045
   1426.    7.013  7.87E-07  1.60E-04  3.03E-09  6.17E-07  0.00E+00  0.00E+00  7.90E-07  1.61E-04  6.23E-03  0.00261
   1428.    7.003  7.25E-07  1.48E-04  2.11E-09  4.31E-07  0.00E+00  0.00E+00  7.28E-07  1.48E-04  6.23E-03  0.00182
   1430.    6.993  6.05E-07  1.24E-04  1.42E-10  2.91E-08  0.00E+00  0.00E+00  6.05E-07  1.24E-04  6.24E-03  0.00012
   1432.    6.983  6.81E-07  1.40E-04  1.89E-10  3.88E-08  0.00E+00  0.00E+00  6.81E-07  1.40E-04  6.24E-03  0.00017
   1434.    6.974  6.38E-07  1.31E-04  8.35E-11  1.72E-08  0.00E+00  0.00E+00  6.38E-07  1.31E-04  6.24E-03  0.00007
   1436.    6.964  4.70E-07  9.69E-05  9.83E-13  2.03E-10  0.00E+00  0.00E+00  4.70E-07  9.69E-05  6.24E-03  0.00000
   1438.    6.954  5.55E-07  1.15E-04  2.11E-10  4.36E-08  0.00E+00  0.00E+00  5.56E-07  1.15E-04  6.24E-03  0.00019
   1440.    6.944  7.79E-07  1.62E-04  3.16E-09  6.55E-07  0.00E+00  0.00E+00  7.82E-07  1.62E-04  6.24E-03  0.00287
   1442.    6.935  8.40E-07  1.75E-04  9.73E-09  2.02E-06  0.00E+00  0.00E+00  8.50E-07  1.77E-04  6.24E-03  0.00887
   1444.    6.925  8.13E-07  1.69E-04  9.38E-09  1.96E-06  0.00E+00  0.00E+00  8.22E-07  1.71E-04  6.24E-03  0.00858
   1446.    6.916  6.46E-07  1.35E-04  2.20E-09  4.61E-07  0.00E+00  0.00E+00  6.48E-07  1.36E-04  6.25E-03  0.00202
   1448.    6.906  5.53E-07  1.16E-04  7.61E-11  1.60E-08  0.00E+00  0.00E+00  5.54E-07  1.16E-04  6.25E-03  0.00007
   1450.    6.897  6.58E-07  1.38E-04  1.94E-10  4.09E-08  0.00E+00  0.00E+00  6.58E-07  1.38E-04  6.25E-03  0.00018
   1452.    6.887  6.19E-07  1.30E-04  8.71E-11  1.84E-08  0.00E+00  0.00E+00  6.19E-07  1.30E-04  6.25E-03  0.00008
   1454.    6.878  5.16E-07  1.09E-04  3.47E-13  7.34E-11  0.00E+00  0.00E+00  5.16E-07  1.09E-04  6.25E-03  0.00000
   1456.    6.868  3.50E-07  7.42E-05  4.61E-16  9.78E-14  0.00E+00  0.00E+00  3.50E-07  7.42E-05  6.25E-03  0.00000
   1458.    6.859  3.19E-07  6.79E-05  3.27E-23  6.96E-21  0.00E+00  0.00E+00  3.19E-07  6.79E-05  6.25E-03  0.00000
   1460.    6.849  4.74E-07  1.01E-04  3.25E-13  6.93E-11  0.00E+00  0.00E+00  4.74E-07  1.01E-04  6.25E-03  0.00000
   1462.    6.840  5.69E-07  1.22E-04  8.32E-13  1.78E-10  0.00E+00  0.00E+00  5.69E-07  1.22E-04  6.25E-03  0.00000
   1464.    6.831  4.37E-07  9.36E-05  1.32E-12  2.83E-10  0.00E+00  0.00E+00  4.37E-07  9.36E-05  6.25E-03  0.00000
   1466.    6.821  4.66E-07  1.00E-04  2.21E-12  4.74E-10  0.00E+00  0.00E+00  4.66E-07  1.00E-04  6.26E-03  0.00000
   1468.    6.812  5.92E-07  1.28E-04  5.94E-12  1.28E-09  0.00E+00  0.00E+00  5.92E-07  1.28E-04  6.26E-03  0.00001
   1470.    6.803  5.20E-07  1.12E-04  3.79E-12  8.19E-10  0.00E+00  0.00E+00  5.20E-07  1.12E-04  6.26E-03  0.00000
   1472.    6.793  3.49E-07  7.55E-05  7.86E-15  1.70E-12  0.00E+00  0.00E+00  3.49E-07  7.55E-05  6.26E-03  0.00000
   1474.    6.784  3.33E-07  7.23E-05  1.42E-17  3.09E-15  0.00E+00  0.00E+00  3.33E-07  7.23E-05  6.26E-03  0.00000
   1476.    6.775  4.03E-07  8.78E-05  7.76E-13  1.69E-10  0.00E+00  0.00E+00  4.03E-07  8.78E-05  6.26E-03  0.00000
   1478.    6.766  5.52E-07  1.21E-04  4.28E-11  9.36E-09  0.00E+00  0.00E+00  5.52E-07  1.21E-04  6.26E-03  0.00004
   1480.    6.757  5.77E-07  1.26E-04  5.28E-11  1.16E-08  0.00E+00  0.00E+00  5.77E-07  1.26E-04  6.26E-03  0.00005
   1482.    6.748  5.52E-07  1.21E-04  5.84E-11  1.28E-08  0.00E+00  0.00E+00  5.52E-07  1.21E-04  6.26E-03  0.00006
   1484.    6.739  5.83E-07  1.28E-04  7.13E-11  1.57E-08  0.00E+00  0.00E+00  5.83E-07  1.28E-04  6.26E-03  0.00008
   1486.    6.729  4.49E-07  9.90E-05  1.02E-11  2.25E-09  0.00E+00  0.00E+00  4.49E-07  9.90E-05  6.27E-03  0.00001
   1488.    6.720  3.39E-07  7.50E-05  1.13E-14  2.51E-12  0.00E+00  0.00E+00  3.39E-07  7.50E-05  6.27E-03  0.00000
   1490.    6.711  3.25E-07  7.22E-05  1.34E-17  2.97E-15  0.00E+00  0.00E+00  3.25E-07  7.22E-05  6.27E-03  0.00000
   1492.    6.702  4.26E-07  9.49E-05  1.58E-14  3.52E-12  0.00E+00  0.00E+00  4.26E-07  9.49E-05  6.27E-03  0.00000
   1494.    6.693  4.55E-07  1.02E-04  1.91E-14  4.25E-12  0.00E+00  0.00E+00  4.55E-07  1.02E-04  6.27E-03  0.00000
   1496.    6.684  3.29E-07  7.37E-05  4.86E-15  1.09E-12  0.00E+00  0.00E+00  3.29E-07  7.37E-05  6.27E-03  0.00000
   1498.    6.676  2.94E-07  6.60E-05  1.30E-15  2.91E-13  0.00E+00  0.00E+00  2.94E-07  6.60E-05  6.27E-03  0.00000
   1500.    6.667  3.54E-07  7.97E-05  5.64E-18  1.27E-15  0.00E+00  0.00E+00  3.54E-07  7.97E-05  6.27E-03  0.00000
  iv         1505
1                                             RADIANCE(WATTS/CM2-STER-XXX)
0  FREQ   WAVLEN    PATH THERMAL      SURFACE EMISSION    SURFACE REFLECTED     TOTAL RADIANCE   INTEGRAL    TOTAL
  (CM-1) (MICRN)    (CM-1)   (MICRN)    (CM-1)   (MICRN)    (CM-1)   (MICRN)    (CM-1)   (MICRN)    (CM-1)   TRANS

   1502.    6.658  4.02E-07  9.08E-05  9.88E-18  2.23E-15  0.00E+00  0.00E+00  4.02E-07  9.08E-05  6.27E-03  0.00000
   1504.    6.649  3.42E-07  7.74E-05  4.12E-18  9.32E-16  0.00E+00  0.00E+00  3.42E-07  7.74E-05  6.27E-03  0.00000
   1506.    6.640  2.35E-07  5.34E-05  2.53E-27  5.74E-25  0.00E+00  0.00E+00  2.35E-07  5.34E-05  6.27E-03  0.00000
   1508.    6.631  2.33E-07  5.30E-05  6.71E-30  1.53E-27  0.00E+00  0.00E+00  2.33E-07  5.30E-05  6.27E-03  0.00000
   1510.    6.623  2.85E-07  6.49E-05  6.61E-20  1.51E-17  0.00E+00  0.00E+00  2.85E-07  6.49E-05  6.27E-03  0.00000
   1512.    6.614  3.31E-07  7.58E-05  1.99E-19  4.55E-17  0.00E+00  0.00E+00  3.31E-07  7.58E-05  6.27E-03  0.00000
   1514.    6.605  3.51E-07  8.05E-05  7.16E-20  1.64E-17  0.00E+00  0.00E+00  3.51E-07  8.05E-05  6.28E-03  0.00000
   1516.    6.596  2.84E-07  6.53E-05  3.59E-21  8.24E-19  0.00E+00  0.00E+00  2.84E-07  6.53E-05  6.28E-03  0.00000
   1518.    6.588  2.71E-07  6.24E-05  8.04E-27  1.85E-24  0.00E+00  0.00E+00  2.71E-07  6.24E-05  6.28E-03  0.00000
   1520.    6.579  2.52E-07  5.83E-05  3.06E-27  7.07E-25  0.00E+00  0.00E+00  2.52E-07  5.83E-05  6.28E-03  0.00000
   1522.    6.570  2.24E-07  5.19E-05  7.19E-28  1.67E-25  0.00E+00  0.00E+00  2.24E-07  5.19E-05  6.28E-03  0.00000
   1524.    6.562  2.54E-07  5.89E-05  4.87E-21  1.13E-18  0.00E+00  0.00E+00  2.54E-07  5.89E-05  6.28E-03  0.00000
   1526.    6.553  2.79E-07  6.50E-05  1.08E-20  2.53E-18  0.00E+00  0.00E+00  2.79E-07  6.50E-05  6.28E-03  0.00000
   1528.    6.545  3.08E-07  7.20E-05  8.36E-18  1.95E-15  0.00E+00  0.00E+00  3.08E-07  7.20E-05  6.28E-03  0.00000
   1530.    6.536  3.47E-07  8.13E-05  2.07E-17  4.84E-15  0.00E+00  0.00E+00  3.47E-07  8.13E-05  6.28E-03  0.00000
   1532.    6.527  2.94E-07  6.89E-05  6.17E-18  1.45E-15  0.00E+00  0.00E+00  2.94E-07  6.89E-05  6.28E-03  0.00000
   1534.    6.519  2.51E-07  5.90E-05  1.36E-23  3.20E-21  0.00E+00  0.00E+00  2.51E-07  5.90E-05  6.28E-03  0.00000
   1536.    6.510  2.96E-07  6.99E-05  4.05E-23  9.55E-21  0.00E+00  0.00E+00  2.96E-07  6.99E-05  6.28E-03  0.00000
   1538.    6.502  2.35E-07  5.56E-05  1.35E-23  3.19E-21  0.00E+00  0.00E+00  2.35E-07  5.56E-05  6.28E-03  0.00000
   1540.    6.494  1.81E-07  4.30E-05  3.52E-36  8.35E-34  0.00E+00  0.00E+00  1.81E-07  4.30E-05  6.28E-03  0.00000
   1542.    6.485  1.95E-07  4.63E-05  1.06E-35  2.51E-33  0.00E+00  0.00E+00  1.95E-07  4.63E-05  6.28E-03  0.00000
   1544.    6.477  2.31E-07  5.50E-05  2.37E-23  5.64E-21  0.00E+00  0.00E+00  2.31E-07  5.50E-05  6.28E-03  0.00000
   1546.    6.468  2.87E-07  6.86E-05  2.66E-17  6.37E-15  0.00E+00  0.00E+00  2.87E-07  6.86E-05  6.28E-03  0.00000
   1548.    6.460  3.36E-07  8.06E-05  7.76E-17  1.86E-14  0.00E+00  0.00E+00  3.36E-07  8.06E-05  6.28E-03  0.00000
   1550.    6.452  3.02E-07  7.26E-05  2.59E-17  6.23E-15  0.00E+00  0.00E+00  3.02E-07  7.26E-05  6.28E-03  0.00000
   1552.    6.443  2.94E-07  7.09E-05  3.38E-19  8.14E-17  0.00E+00  0.00E+00  2.94E-07  7.09E-05  6.29E-03  0.00000
   1554.    6.435  2.45E-07  5.92E-05  2.21E-19  5.33E-17  0.00E+00  0.00E+00  2.45E-07  5.92E-05  6.29E-03  0.00000
   1556.    6.427  2.14E-07  5.19E-05  6.15E-20  1.49E-17  0.00E+00  0.00E+00  2.14E-07  5.19E-05  6.29E-03  0.00000
   1558.    6.418  1.74E-07  4.21E-05  1.98E-37  4.82E-35  0.00E+00  0.00E+00  1.74E-07  4.21E-05  6.29E-03  0.00000
   1560.    6.410  1.77E-07  4.30E-05  4.12E-32  1.00E-29  0.00E+00  0.00E+00  1.77E-07  4.30E-05  6.29E-03  0.00000
   1562.    6.402  2.48E-07  6.06E-05  1.52E-22  3.71E-20  0.00E+00  0.00E+00  2.48E-07  6.06E-05  6.29E-03  0.00000
   1564.    6.394  2.64E-07  6.46E-05  7.24E-18  1.77E-15  0.00E+00  0.00E+00  2.64E-07  6.46E-05  6.29E-03  0.00000
   1566.    6.386  2.83E-07  6.94E-05  1.34E-17  3.29E-15  0.00E+00  0.00E+00  2.83E-07  6.94E-05  6.29E-03  0.00000
   1568.    6.378  2.59E-07  6.36E-05  7.51E-18  1.85E-15  0.00E+00  0.00E+00  2.59E-07  6.36E-05  6.29E-03  0.00000
   1570.    6.369  2.22E-07  5.48E-05  5.31E-18  1.31E-15  0.00E+00  0.00E+00  2.22E-07  5.48E-05  6.29E-03  0.00000
   1572.    6.361  2.91E-07  7.19E-05  6.16E-18  1.52E-15  0.00E+00  0.00E+00  2.91E-07  7.19E-05  6.29E-03  0.00000
   1574.    6.353  2.68E-07  6.63E-05  4.08E-14  1.01E-11  0.00E+00  0.00E+00  2.68E-07  6.63E-05  6.29E-03  0.00000
   1576.    6.345  1.90E-07  4.73E-05  1.22E-13  3.04E-11  0.00E+00  0.00E+00  1.90E-07  4.73E-05  6.29E-03  0.00000
   1578.    6.337  2.40E-07  5.99E-05  5.69E-14  1.42E-11  0.00E+00  0.00E+00  2.40E-07  5.99E-05  6.29E-03  0.00000
   1580.    6.329  3.49E-07  8.72E-05  3.65E-12  9.10E-10  0.00E+00  0.00E+00  3.49E-07  8.72E-05  6.29E-03  0.00001
   1582.    6.321  3.97E-07  9.94E-05  6.19E-11  1.55E-08  0.00E+00  0.00E+00  3.97E-07  9.94E-05  6.29E-03  0.00009
   1584.    6.313  4.26E-07  1.07E-04  3.70E-10  9.28E-08  0.00E+00  0.00E+00  4.27E-07  1.07E-04  6.29E-03  0.00056
   1586.    6.305  4.41E-07  1.11E-04  8.51E-10  2.14E-07  0.00E+00  0.00E+00  4.42E-07  1.11E-04  6.29E-03  0.00130
   1588.    6.297  4.27E-07  1.08E-04  8.91E-10  2.25E-07  0.00E+00  0.00E+00  4.28E-07  1.08E-04  6.30E-03  0.00137
   1590.    6.289  3.82E-07  9.65E-05  3.28E-10  8.28E-08  0.00E+00  0.00E+00  3.82E-07  9.66E-05  6.30E-03  0.00051
   1592.    6.281  3.63E-07  9.21E-05  1.66E-10  4.20E-08  0.00E+00  0.00E+00  3.63E-07  9.21E-05  6.30E-03  0.00026
   1594.    6.274  3.32E-07  8.44E-05  9.54E-11  2.42E-08  0.00E+00  0.00E+00  3.32E-07  8.44E-05  6.30E-03  0.00015
   1596.    6.266  3.46E-07  8.82E-05  3.22E-10  8.21E-08  0.00E+00  0.00E+00  3.47E-07  8.83E-05  6.30E-03  0.00052
   1598.    6.258  4.14E-07  1.06E-04  1.63E-09  4.17E-07  0.00E+00  0.00E+00  4.16E-07  1.06E-04  6.30E-03  0.00262
   1600.    6.250  3.93E-07  1.01E-04  1.38E-09  3.54E-07  0.00E+00  0.00E+00  3.94E-07  1.01E-04  6.30E-03  0.00222
  iv         1605
1                                             RADIANCE(WATTS/CM2-STER-XXX)
0  FREQ   WAVLEN    PATH THERMAL      SURFACE EMISSION    SURFACE REFLECTED     TOTAL RADIANCE   INTEGRAL    TOTAL
  (CM-1) (MICRN)    (CM-1)   (MICRN)    (CM-1)   (MICRN)    (CM-1)   (MICRN)    (CM-1)   (MICRN)    (CM-1)   TRANS

   1602.    6.242  3.27E-07  8.40E-05  1.78E-10  4.57E-08  0.00E+00  0.00E+00  3.27E-07  8.40E-05  6.30E-03  0.00029
   1604.    6.234  3.50E-07  8.99E-05  2.03E-10  5.21E-08  0.00E+00  0.00E+00  3.50E-07  9.00E-05  6.30E-03  0.00033
   1606.    6.227  3.48E-07  8.99E-05  2.32E-10  5.97E-08  0.00E+00  0.00E+00  3.49E-07  8.99E-05  6.30E-03  0.00038
   1608.    6.219  2.84E-07  7.35E-05  1.64E-11  4.24E-09  0.00E+00  0.00E+00  2.84E-07  7.35E-05  6.30E-03  0.00003
   1610.    6.211  2.97E-07  7.71E-05  8.24E-12  2.14E-09  0.00E+00  0.00E+00  2.97E-07  7.71E-05  6.30E-03  0.00001
   1612.    6.203  3.31E-07  8.61E-05  1.03E-11  2.67E-09  0.00E+00  0.00E+00  3.31E-07  8.61E-05  6.30E-03  0.00002
   1614.    6.196  2.73E-07  7.11E-05  1.25E-12  3.25E-10  0.00E+00  0.00E+00  2.73E-07  7.11E-05  6.30E-03  0.00000
   1616.    6.188  1.76E-07  4.59E-05  4.20E-13  1.10E-10  0.00E+00  0.00E+00  1.76E-07  4.59E-05  6.30E-03  0.00000
   1618.    6.180  1.91E-07  5.00E-05  4.20E-13  1.10E-10  0.00E+00  0.00E+00  1.91E-07  5.00E-05  6.31E-03  0.00000
   1620.    6.173  2.56E-07  6.72E-05  3.41E-16  8.95E-14  0.00E+00  0.00E+00  2.56E-07  6.72E-05  6.31E-03  0.00000
   1622.    6.165  2.19E-07  5.77E-05  1.78E-15  4.67E-13  0.00E+00  0.00E+00  2.19E-07  5.77E-05  6.31E-03  0.00000
   1624.    6.158  1.85E-07  4.89E-05  4.53E-15  1.19E-12  0.00E+00  0.00E+00  1.85E-07  4.89E-05  6.31E-03  0.00000
   1626.    6.150  2.12E-07  5.59E-05  5.19E-15  1.37E-12  0.00E+00  0.00E+00  2.12E-07  5.59E-05  6.31E-03  0.00000
   1628.    6.143  2.09E-07  5.54E-05  2.56E-14  6.78E-12  0.00E+00  0.00E+00  2.09E-07  5.54E-05  6.31E-03  0.00000
   1630.    6.135  2.69E-07  7.16E-05  9.51E-14  2.53E-11  0.00E+00  0.00E+00  2.69E-07  7.16E-05  6.31E-03  0.00000
   1632.    6.127  2.66E-07  7.08E-05  6.36E-14  1.69E-11  0.00E+00  0.00E+00  2.66E-07  7.08E-05  6.31E-03  0.00000
   1634.    6.120  1.78E-07  4.76E-05  6.17E-16  1.65E-13  0.00E+00  0.00E+00  1.78E-07  4.76E-05  6.31E-03  0.00000
   1636.    6.112  1.34E-07  3.59E-05  3.20E-24  8.58E-22  0.00E+00  0.00E+00  1.34E-07  3.59E-05  6.31E-03  0.00000
   1638.    6.105  1.71E-07  4.60E-05  1.37E-17  3.68E-15  0.00E+00  0.00E+00  1.71E-07  4.60E-05  6.31E-03  0.00000
   1640.    6.098  2.24E-07  6.03E-05  3.75E-16  1.01E-13  0.00E+00  0.00E+00  2.24E-07  6.03E-05  6.31E-03  0.00000
   1642.    6.090  2.41E-07  6.49E-05  5.55E-16  1.50E-13  0.00E+00  0.00E+00  2.41E-07  6.49E-05  6.31E-03  0.00000
   1644.    6.083  2.00E-07  5.40E-05  1.10E-16  2.96E-14  0.00E+00  0.00E+00  2.00E-07  5.40E-05  6.31E-03  0.00000
   1646.    6.075  1.35E-07  3.65E-05  6.65E-23  1.80E-20  0.00E+00  0.00E+00  1.35E-07  3.65E-05  6.31E-03  0.00000
   1648.    6.068  1.40E-07  3.80E-05  1.69E-23  4.58E-21  0.00E+00  0.00E+00  1.40E-07  3.80E-05  6.31E-03  0.00000
   1650.    6.061  1.58E-07  4.31E-05  2.60E-31  7.07E-29  0.00E+00  0.00E+00  1.58E-07  4.31E-05  6.31E-03  0.00000
   1652.    6.053  1.22E-07  3.33E-05  8.66E-32  2.36E-29  0.00E+00  0.00E+00  1.22E-07  3.33E-05  6.31E-03  0.00000
   1654.    6.046  1.15E-07  3.14E-05  1.38E-32  3.78E-30  0.00E+00  0.00E+00  1.15E-07  3.14E-05  6.31E-03  0.00000
   1656.    6.039  1.72E-07  4.73E-05  3.07E-17  8.42E-15  0.00E+00  0.00E+00  1.72E-07  4.73E-05  6.31E-03  0.00000
   1658.    6.031  2.34E-07  6.44E-05  1.54E-15  4.23E-13  0.00E+00  0.00E+00  2.34E-07  6.44E-05  6.31E-03  0.00000
   1660.    6.024  2.30E-07  6.34E-05  2.20E-15  6.08E-13  0.00E+00  0.00E+00  2.30E-07  6.34E-05  6.31E-03  0.00000
   1662.    6.017  1.68E-07  4.64E-05  1.55E-15  4.28E-13  0.00E+00  0.00E+00  1.68E-07  4.64E-05  6.31E-03  0.00000
   1664.    6.010  1.90E-07  5.26E-05  1.73E-15  4.79E-13  0.00E+00  0.00E+00  1.90E-07  5.26E-05  6.31E-03  0.00000
   1666.    6.002  2.26E-07  6.28E-05  1.24E-15  3.45E-13  0.00E+00  0.00E+00  2.26E-07  6.28E-05  6.31E-03  0.00000
   1668.    5.995  1.63E-07  4.54E-05  3.51E-16  9.76E-14  0.00E+00  0.00E+00  1.63E-07  4.54E-05  6.31E-03  0.00000
   1670.    5.988  1.24E-07  3.45E-05  1.85E-23  5.16E-21  0.00E+00  0.00E+00  1.24E-07  3.45E-05  6.32E-03  0.00000
   1672.    5.981  1.51E-07  4.22E-05  4.62E-22  1.29E-19  0.00E+00  0.00E+00  1.51E-07  4.22E-05  6.32E-03  0.00000
   1674.    5.974  1.56E-07  4.38E-05  4.62E-22  1.29E-19  0.00E+00  0.00E+00  1.56E-07  4.38E-05  6.32E-03  0.00000
   1676.    5.967  1.46E-07  4.10E-05  2.50E-18  7.02E-16  0.00E+00  0.00E+00  1.46E-07  4.10E-05  6.32E-03  0.00000
   1678.    5.959  1.84E-07  5.17E-05  7.50E-18  2.11E-15  0.00E+00  0.00E+00  1.84E-07  5.17E-05  6.32E-03  0.00000
   1680.    5.952  1.72E-07  4.85E-05  2.51E-18  7.09E-16  0.00E+00  0.00E+00  1.72E-07  4.85E-05  6.32E-03  0.00000
   1682.    5.945  1.45E-07  4.11E-05  3.86E-21  1.09E-18  0.00E+00  0.00E+00  1.45E-07  4.11E-05  6.32E-03  0.00000
   1684.    5.938  1.07E-07  3.02E-05  6.64E-23  1.88E-20  0.00E+00  0.00E+00  1.07E-07  3.02E-05  6.32E-03  0.00000
   1686.    5.931  1.31E-07  3.72E-05  7.59E-22  2.16E-19  0.00E+00  0.00E+00  1.31E-07  3.72E-05  6.32E-03  0.00000
   1688.    5.924  1.59E-07  4.53E-05  1.31E-18  3.73E-16  0.00E+00  0.00E+00  1.59E-07  4.53E-05  6.32E-03  0.00000
   1690.    5.917  1.67E-07  4.76E-05  7.16E-18  2.05E-15  0.00E+00  0.00E+00  1.67E-07  4.76E-05  6.32E-03  0.00000
   1692.    5.910  1.84E-07  5.26E-05  1.11E-17  3.17E-15  0.00E+00  0.00E+00  1.84E-07  5.26E-05  6.32E-03  0.00000
   1694.    5.903  1.47E-07  4.23E-05  3.28E-18  9.40E-16  0.00E+00  0.00E+00  1.47E-07  4.23E-05  6.32E-03  0.00000
   1696.    5.896  1.08E-07  3.12E-05  1.29E-32  3.71E-30  0.00E+00  0.00E+00  1.08E-07  3.12E-05  6.32E-03  0.00000
   1698.    5.889  1.09E-07  3.13E-05  2.57E-38  7.40E-36  0.00E+00  0.00E+00  1.09E-07  3.13E-05  6.32E-03  0.00000
   1700.    5.882  9.47E-08  2.74E-05  8.49E-39  2.45E-36  0.00E+00  0.00E+00  9.47E-08  2.74E-05  6.32E-03  0.00000
  iv         1705
1                                             RADIANCE(WATTS/CM2-STER-XXX)
0  FREQ   WAVLEN    PATH THERMAL      SURFACE EMISSION    SURFACE REFLECTED     TOTAL RADIANCE   INTEGRAL    TOTAL
  (CM-1) (MICRN)    (CM-1)   (MICRN)    (CM-1)   (MICRN)    (CM-1)   (MICRN)    (CM-1)   (MICRN)    (CM-1)   TRANS

   1702.    5.875  1.19E-07  3.44E-05  5.27E-21  1.53E-18  0.00E+00  0.00E+00  1.19E-07  3.44E-05  6.32E-03  0.00000
   1704.    5.869  1.25E-07  3.64E-05  6.18E-20  1.79E-17  0.00E+00  0.00E+00  1.25E-07  3.64E-05  6.32E-03  0.00000
   1706.    5.862  1.20E-07  3.51E-05  8.85E-19  2.58E-16  0.00E+00  0.00E+00  1.20E-07  3.51E-05  6.32E-03  0.00000
   1708.    5.855  1.64E-07  4.77E-05  4.21E-15  1.23E-12  0.00E+00  0.00E+00  1.64E-07  4.77E-05  6.32E-03  0.00000
   1710.    5.848  1.81E-07  5.30E-05  6.20E-15  1.81E-12  0.00E+00  0.00E+00  1.81E-07  5.30E-05  6.32E-03  0.00000
   1712.    5.841  1.83E-07  5.37E-05  5.74E-15  1.68E-12  0.00E+00  0.00E+00  1.83E-07  5.37E-05  6.32E-03  0.00000
   1714.    5.834  1.41E-07  4.15E-05  1.93E-15  5.66E-13  0.00E+00  0.00E+00  1.41E-07  4.15E-05  6.32E-03  0.00000
   1716.    5.828  1.05E-07  3.10E-05  2.22E-20  6.53E-18  0.00E+00  0.00E+00  1.05E-07  3.10E-05  6.32E-03  0.00000
   1718.    5.821  1.01E-07  2.99E-05  2.22E-20  6.54E-18  0.00E+00  0.00E+00  1.01E-07  2.99E-05  6.32E-03  0.00000
   1720.    5.814  1.55E-07  4.58E-05  2.81E-14  8.32E-12  0.00E+00  0.00E+00  1.55E-07  4.58E-05  6.32E-03  0.00000
   1722.    5.807  1.91E-07  5.68E-05  1.02E-13  3.03E-11  0.00E+00  0.00E+00  1.91E-07  5.68E-05  6.32E-03  0.00000
   1724.    5.800  2.07E-07  6.17E-05  1.50E-11  4.46E-09  0.00E+00  0.00E+00  2.07E-07  6.17E-05  6.32E-03  0.00004
   1726.    5.794  2.26E-07  6.74E-05  2.55E-11  7.58E-09  0.00E+00  0.00E+00  2.26E-07  6.74E-05  6.32E-03  0.00007
   1728.    5.787  2.06E-07  6.16E-05  1.03E-11  3.08E-09  0.00E+00  0.00E+00  2.06E-07  6.16E-05  6.32E-03  0.00003
   1730.    5.780  1.55E-07  4.62E-05  1.61E-12  4.81E-10  0.00E+00  0.00E+00  1.55E-07  4.62E-05  6.32E-03  0.00000
   1732.    5.774  1.20E-07  3.61E-05  4.43E-19  1.33E-16  0.00E+00  0.00E+00  1.20E-07  3.61E-05  6.32E-03  0.00000
   1734.    5.767  9.35E-08  2.81E-05  8.43E-25  2.53E-22  0.00E+00  0.00E+00  9.35E-08  2.81E-05  6.32E-03  0.00000
   1736.    5.760  1.24E-07  3.74E-05  3.83E-19  1.15E-16  0.00E+00  0.00E+00  1.24E-07  3.74E-05  6.32E-03  0.00000
   1738.    5.754  1.29E-07  3.89E-05  1.44E-14  4.35E-12  0.00E+00  0.00E+00  1.29E-07  3.89E-05  6.33E-03  0.00000
   1740.    5.747  1.16E-07  3.51E-05  4.37E-14  1.32E-11  0.00E+00  0.00E+00  1.16E-07  3.51E-05  6.33E-03  0.00000
   1742.    5.741  1.42E-07  4.30E-05  1.60E-14  4.85E-12  0.00E+00  0.00E+00  1.42E-07  4.30E-05  6.33E-03  0.00000
   1744.    5.734  1.36E-07  4.15E-05  2.36E-15  7.17E-13  0.00E+00  0.00E+00  1.36E-07  4.15E-05  6.33E-03  0.00000
   1746.    5.727  1.34E-07  4.08E-05  3.50E-15  1.07E-12  0.00E+00  0.00E+00  1.34E-07  4.08E-05  6.33E-03  0.00000
   1748.    5.721  1.14E-07  3.50E-05  9.77E-16  2.99E-13  0.00E+00  0.00E+00  1.14E-07  3.50E-05  6.33E-03  0.00000
   1750.    5.714  1.15E-07  3.51E-05  1.37E-16  4.20E-14  0.00E+00  0.00E+00  1.15E-07  3.51E-05  6.33E-03  0.00000
   1752.    5.708  1.46E-07  4.49E-05  6.00E-12  1.84E-09  0.00E+00  0.00E+00  1.46E-07  4.49E-05  6.33E-03  0.00002
   1754.    5.701  1.94E-07  5.96E-05  2.79E-11  8.58E-09  0.00E+00  0.00E+00  1.94E-07  5.96E-05  6.33E-03  0.00008
   1756.    5.695  1.68E-07  5.18E-05  1.71E-11  5.27E-09  0.00E+00  0.00E+00  1.68E-07  5.18E-05  6.33E-03  0.00005
   1758.    5.688  1.65E-07  5.10E-05  2.07E-12  6.40E-10  0.00E+00  0.00E+00  1.65E-07  5.10E-05  6.33E-03  0.00001
   1760.    5.682  1.60E-07  4.97E-05  2.44E-12  7.56E-10  0.00E+00  0.00E+00  1.60E-07  4.97E-05  6.33E-03  0.00001
   1762.    5.675  1.32E-07  4.10E-05  4.88E-12  1.52E-09  0.00E+00  0.00E+00  1.32E-07  4.10E-05  6.33E-03  0.00001
   1764.    5.669  1.82E-07  5.65E-05  6.77E-11  2.11E-08  0.00E+00  0.00E+00  1.82E-07  5.65E-05  6.33E-03  0.00021
   1766.    5.663  1.97E-07  6.13E-05  1.25E-10  3.88E-08  0.00E+00  0.00E+00  1.97E-07  6.14E-05  6.33E-03  0.00038
   1768.    5.656  1.47E-07  4.60E-05  3.06E-11  9.58E-09  0.00E+00  0.00E+00  1.47E-07  4.60E-05  6.33E-03  0.00009
   1770.    5.650  1.16E-07  3.63E-05  7.12E-18  2.23E-15  0.00E+00  0.00E+00  1.16E-07  3.63E-05  6.33E-03  0.00000
   1772.    5.643  8.52E-08  2.68E-05  7.91E-15  2.48E-12  0.00E+00  0.00E+00  8.52E-08  2.68E-05  6.33E-03  0.00000
   1774.    5.637  1.08E-07  3.41E-05  4.63E-14  1.46E-11  0.00E+00  0.00E+00  1.08E-07  3.41E-05  6.33E-03  0.00000
   1776.    5.631  1.51E-07  4.77E-05  2.17E-11  6.86E-09  0.00E+00  0.00E+00  1.51E-07  4.77E-05  6.33E-03  0.00007
   1778.    5.624  1.74E-07  5.50E-05  5.35E-11  1.69E-08  0.00E+00  0.00E+00  1.74E-07  5.50E-05  6.33E-03  0.00017
   1780.    5.618  1.41E-07  4.48E-05  1.79E-11  5.66E-09  0.00E+00  0.00E+00  1.41E-07  4.48E-05  6.33E-03  0.00006
   1782.    5.612  1.57E-07  5.00E-05  1.33E-10  4.22E-08  0.00E+00  0.00E+00  1.57E-07  5.00E-05  6.33E-03  0.00043
   1784.    5.605  1.72E-07  5.48E-05  3.70E-10  1.18E-07  0.00E+00  0.00E+00  1.73E-07  5.50E-05  6.33E-03  0.00121
   1786.    5.599  1.94E-07  6.18E-05  1.95E-09  6.22E-07  0.00E+00  0.00E+00  1.96E-07  6.24E-05  6.33E-03  0.00642
   1788.    5.593  2.04E-07  6.53E-05  1.77E-09  5.65E-07  0.00E+00  0.00E+00  2.06E-07  6.59E-05  6.33E-03  0.00583
   1790.    5.587  1.46E-07  4.68E-05  1.76E-10  5.63E-08  0.00E+00  0.00E+00  1.46E-07  4.68E-05  6.33E-03  0.00058
   1792.    5.580  9.43E-08  3.03E-05  1.55E-12  4.98E-10  0.00E+00  0.00E+00  9.43E-08  3.03E-05  6.33E-03  0.00001
   1794.    5.574  1.11E-07  3.57E-05  1.60E-12  5.16E-10  0.00E+00  0.00E+00  1.11E-07  3.57E-05  6.33E-03  0.00001
   1796.    5.568  1.40E-07  4.51E-05  2.26E-11  7.29E-09  0.00E+00  0.00E+00  1.40E-07  4.51E-05  6.33E-03  0.00008
   1798.    5.562  1.48E-07  4.79E-05  6.71E-11  2.17E-08  0.00E+00  0.00E+00  1.48E-07  4.79E-05  6.33E-03  0.00023
   1800.    5.556  1.17E-07  3.79E-05  3.48E-11  1.13E-08  0.00E+00  0.00E+00  1.17E-07  3.80E-05  6.33E-03  0.00012
  iv         1805
1                                             RADIANCE(WATTS/CM2-STER-XXX)
0  FREQ   WAVLEN    PATH THERMAL      SURFACE EMISSION    SURFACE REFLECTED     TOTAL RADIANCE   INTEGRAL    TOTAL
  (CM-1) (MICRN)    (CM-1)   (MICRN)    (CM-1)   (MICRN)    (CM-1)   (MICRN)    (CM-1)   (MICRN)    (CM-1)   TRANS

   1802.    5.549  1.44E-07  4.67E-05  1.19E-09  3.86E-07  0.00E+00  0.00E+00  1.45E-07  4.71E-05  6.33E-03  0.00419
   1804.    5.543  1.90E-07  6.17E-05  5.12E-09  1.67E-06  0.00E+00  0.00E+00  1.95E-07  6.34E-05  6.33E-03  0.01807
   1806.    5.537  1.98E-07  6.47E-05  5.34E-09  1.74E-06  0.00E+00  0.00E+00  2.04E-07  6.65E-05  6.34E-03  0.01895
   1808.    5.531  1.82E-07  5.96E-05  2.42E-09  7.90E-07  0.00E+00  0.00E+00  1.85E-07  6.04E-05  6.34E-03  0.00862
   1810.    5.525  1.43E-07  4.67E-05  6.67E-10  2.18E-07  0.00E+00  0.00E+00  1.43E-07  4.69E-05  6.34E-03  0.00239
   1812.    5.519  1.51E-07  4.94E-05  3.93E-09  1.29E-06  0.00E+00  0.00E+00  1.54E-07  5.07E-05  6.34E-03  0.01441
   1814.    5.513  1.95E-07  6.43E-05  2.37E-08  7.79E-06  0.00E+00  0.00E+00  2.19E-07  7.20E-05  6.34E-03  0.08699
   1816.    5.507  1.93E-07  6.37E-05  2.84E-08  9.38E-06  0.00E+00  0.00E+00  2.22E-07  7.31E-05  6.34E-03  0.10492
   1818.    5.501  1.90E-07  6.28E-05  3.26E-08  1.08E-05  0.00E+00  0.00E+00  2.23E-07  7.36E-05  6.34E-03  0.12165
   1820.    5.495  1.93E-07  6.39E-05  3.53E-08  1.17E-05  0.00E+00  0.00E+00  2.28E-07  7.56E-05  6.34E-03  0.13225
   1822.    5.488  1.85E-07  6.13E-05  1.12E-08  3.73E-06  0.00E+00  0.00E+00  1.96E-07  6.50E-05  6.34E-03  0.04225
   1824.    5.482  1.40E-07  4.66E-05  8.61E-10  2.86E-07  0.00E+00  0.00E+00  1.41E-07  4.69E-05  6.34E-03  0.00326
   1826.    5.476  1.24E-07  4.15E-05  2.84E-11  9.45E-09  0.00E+00  0.00E+00  1.24E-07  4.15E-05  6.34E-03  0.00011
   1828.    5.470  1.25E-07  4.17E-05  2.72E-11  9.07E-09  0.00E+00  0.00E+00  1.25E-07  4.17E-05  6.34E-03  0.00010
   1830.    5.464  9.24E-08  3.09E-05  9.89E-12  3.31E-09  0.00E+00  0.00E+00  9.24E-08  3.09E-05  6.34E-03  0.00004
   1832.    5.459  1.42E-07  4.76E-05  1.76E-09  5.90E-07  0.00E+00  0.00E+00  1.43E-07  4.82E-05  6.34E-03  0.00697
   1834.    5.453  1.81E-07  6.08E-05  6.18E-09  2.08E-06  0.00E+00  0.00E+00  1.87E-07  6.28E-05  6.34E-03  0.02453
   1836.    5.447  1.62E-07  5.47E-05  4.27E-09  1.44E-06  0.00E+00  0.00E+00  1.67E-07  5.62E-05  6.34E-03  0.01700
   1838.    5.441  1.61E-07  5.44E-05  4.56E-09  1.54E-06  0.00E+00  0.00E+00  1.66E-07  5.59E-05  6.34E-03  0.01846
   1840.    5.435  1.79E-07  6.07E-05  8.56E-09  2.90E-06  0.00E+00  0.00E+00  1.88E-07  6.36E-05  6.34E-03  0.03473
   1842.    5.429  1.37E-07  4.65E-05  2.94E-09  9.96E-07  0.00E+00  0.00E+00  1.40E-07  4.75E-05  6.34E-03  0.01195
   1844.    5.423  8.47E-08  2.88E-05  4.11E-12  1.40E-09  0.00E+00  0.00E+00  8.47E-08  2.88E-05  6.34E-03  0.00002
   1846.    5.417  1.05E-07  3.58E-05  1.41E-11  4.80E-09  0.00E+00  0.00E+00  1.05E-07  3.58E-05  6.34E-03  0.00006
   1848.    5.411  1.40E-07  4.77E-05  5.08E-09  1.73E-06  0.00E+00  0.00E+00  1.45E-07  4.94E-05  6.34E-03  0.02144
   1850.    5.405  1.62E-07  5.53E-05  2.87E-08  9.82E-06  0.00E+00  0.00E+00  1.90E-07  6.51E-05  6.34E-03  0.12151
   1852.    5.400  1.56E-07  5.33E-05  4.86E-08  1.67E-05  0.00E+00  0.00E+00  2.04E-07  7.00E-05  6.34E-03  0.20715
   1854.    5.394  1.42E-07  4.88E-05  6.78E-08  2.33E-05  0.00E+00  0.00E+00  2.10E-07  7.21E-05  6.34E-03  0.29133
   1856.    5.388  1.40E-07  4.82E-05  6.87E-08  2.37E-05  0.00E+00  0.00E+00  2.09E-07  7.18E-05  6.34E-03  0.29730
   1858.    5.382  1.52E-07  5.25E-05  3.88E-08  1.34E-05  0.00E+00  0.00E+00  1.91E-07  6.59E-05  6.34E-03  0.16878
   1860.    5.376  1.54E-07  5.33E-05  2.98E-08  1.03E-05  0.00E+00  0.00E+00  1.84E-07  6.36E-05  6.34E-03  0.13133
   1862.    5.371  1.52E-07  5.27E-05  4.12E-08  1.43E-05  0.00E+00  0.00E+00  1.93E-07  6.70E-05  6.34E-03  0.18279
   1864.    5.365  1.52E-07  5.30E-05  2.69E-08  9.34E-06  0.00E+00  0.00E+00  1.79E-07  6.23E-05  6.35E-03  0.11976
   1866.    5.359  1.17E-07  4.07E-05  4.49E-09  1.56E-06  0.00E+00  0.00E+00  1.21E-07  4.23E-05  6.35E-03  0.02007
   1868.    5.353  7.59E-08  2.65E-05  7.63E-12  2.66E-09  0.00E+00  0.00E+00  7.59E-08  2.65E-05  6.35E-03  0.00003
   1870.    5.348  9.54E-08  3.33E-05  1.95E-09  6.83E-07  0.00E+00  0.00E+00  9.73E-08  3.40E-05  6.35E-03  0.00901
   1872.    5.342  1.40E-07  4.91E-05  2.50E-08  8.77E-06  0.00E+00  0.00E+00  1.65E-07  5.79E-05  6.35E-03  0.11587
   1874.    5.336  1.29E-07  4.54E-05  6.91E-08  2.43E-05  0.00E+00  0.00E+00  1.98E-07  6.97E-05  6.35E-03  0.32200
   1876.    5.330  1.11E-07  3.90E-05  8.82E-08  3.10E-05  0.00E+00  0.00E+00  1.99E-07  7.00E-05  6.35E-03  0.41336
   1878.    5.325  1.07E-07  3.79E-05  8.79E-08  3.10E-05  0.00E+00  0.00E+00  1.95E-07  6.89E-05  6.35E-03  0.41521
   1880.    5.319  1.01E-07  3.58E-05  9.42E-08  3.33E-05  0.00E+00  0.00E+00  1.96E-07  6.91E-05  6.35E-03  0.44877
   1882.    5.313  9.74E-08  3.45E-05  9.84E-08  3.48E-05  0.00E+00  0.00E+00  1.96E-07  6.93E-05  6.35E-03  0.47185
   1884.    5.308  1.23E-07  4.38E-05  4.54E-08  1.61E-05  0.00E+00  0.00E+00  1.69E-07  5.99E-05  6.35E-03  0.21918
   1886.    5.302  1.35E-07  4.81E-05  3.07E-08  1.09E-05  0.00E+00  0.00E+00  1.66E-07  5.90E-05  6.35E-03  0.14979
   1888.    5.297  1.27E-07  4.52E-05  2.17E-08  7.73E-06  0.00E+00  0.00E+00  1.48E-07  5.29E-05  6.35E-03  0.10617
   1890.    5.291  1.10E-07  3.93E-05  5.51E-09  1.97E-06  0.00E+00  0.00E+00  1.16E-07  4.13E-05  6.35E-03  0.02742
   1892.    5.285  1.35E-07  4.83E-05  2.15E-08  7.69E-06  0.00E+00  0.00E+00  1.56E-07  5.59E-05  6.35E-03  0.10753
   1894.    5.280  1.29E-07  4.63E-05  1.72E-08  6.16E-06  0.00E+00  0.00E+00  1.46E-07  5.25E-05  6.35E-03  0.08617
   1896.    5.274  1.17E-07  4.20E-05  2.40E-08  8.63E-06  0.00E+00  0.00E+00  1.41E-07  5.07E-05  6.35E-03  0.12253
   1898.    5.269  9.79E-08  3.53E-05  7.82E-08  2.82E-05  0.00E+00  0.00E+00  1.76E-07  6.34E-05  6.35E-03  0.40084
   1900.    5.263  7.51E-08  2.71E-05  1.07E-07  3.86E-05  0.00E+00  0.00E+00  1.82E-07  6.57E-05  6.35E-03  0.55095
  iv         1905
1                                             RADIANCE(WATTS/CM2-STER-XXX)
0  FREQ   WAVLEN    PATH THERMAL      SURFACE EMISSION    SURFACE REFLECTED     TOTAL RADIANCE   INTEGRAL    TOTAL
  (CM-1) (MICRN)    (CM-1)   (MICRN)    (CM-1)   (MICRN)    (CM-1)   (MICRN)    (CM-1)   (MICRN)    (CM-1)   TRANS

   1902.    5.258  8.86E-08  3.21E-05  8.14E-08  2.95E-05  0.00E+00  0.00E+00  1.70E-07  6.15E-05  6.35E-03  0.42279
   1904.    5.252  1.07E-07  3.88E-05  4.69E-08  1.70E-05  0.00E+00  0.00E+00  1.54E-07  5.58E-05  6.35E-03  0.24574
   1906.    5.247  1.14E-07  4.14E-05  3.46E-08  1.26E-05  0.00E+00  0.00E+00  1.49E-07  5.40E-05  6.35E-03  0.18288
   1908.    5.241  1.07E-07  3.91E-05  9.81E-09  3.57E-06  0.00E+00  0.00E+00  1.17E-07  4.27E-05  6.35E-03  0.05189
   1910.    5.236  1.03E-07  3.77E-05  1.25E-08  4.57E-06  0.00E+00  0.00E+00  1.16E-07  4.23E-05  6.35E-03  0.06769
   1912.    5.230  1.02E-07  3.74E-05  4.82E-08  1.76E-05  0.00E+00  0.00E+00  1.51E-07  5.50E-05  6.35E-03  0.26156
   1914.    5.225  1.02E-07  3.74E-05  5.58E-08  2.04E-05  0.00E+00  0.00E+00  1.58E-07  5.79E-05  6.35E-03  0.30415
   1916.    5.219  1.07E-07  3.92E-05  2.73E-08  1.00E-05  0.00E+00  0.00E+00  1.34E-07  4.93E-05  6.35E-03  0.14979
   1918.    5.214  8.69E-08  3.20E-05  3.88E-09  1.43E-06  0.00E+00  0.00E+00  9.08E-08  3.34E-05  6.35E-03  0.02142
   1920.    5.208  1.04E-07  3.83E-05  5.27E-09  1.94E-06  0.00E+00  0.00E+00  1.09E-07  4.03E-05  6.35E-03  0.02957
   1922.    5.203  1.00E-07  3.70E-05  4.07E-09  1.50E-06  0.00E+00  0.00E+00  1.04E-07  3.85E-05  6.35E-03  0.02285
   1924.    5.198  9.64E-08  3.57E-05  1.66E-08  6.13E-06  0.00E+00  0.00E+00  1.13E-07  4.18E-05  6.35E-03  0.09470
   1926.    5.192  8.60E-08  3.19E-05  6.68E-08  2.48E-05  0.00E+00  0.00E+00  1.53E-07  5.67E-05  6.35E-03  0.38327
   1928.    5.187  5.87E-08  2.18E-05  1.05E-07  3.90E-05  0.00E+00  0.00E+00  1.64E-07  6.08E-05  6.35E-03  0.60661
   1930.    5.181  4.80E-08  1.79E-05  1.16E-07  4.32E-05  0.00E+00  0.00E+00  1.64E-07  6.11E-05  6.35E-03  0.67487
   1932.    5.176  6.29E-08  2.35E-05  7.35E-08  2.74E-05  0.00E+00  0.00E+00  1.36E-07  5.09E-05  6.36E-03  0.43053
   1934.    5.171  6.62E-08  2.48E-05  6.55E-08  2.45E-05  0.00E+00  0.00E+00  1.32E-07  4.93E-05  6.36E-03  0.38812
   1936.    5.165  5.30E-08  1.99E-05  1.04E-07  3.90E-05  0.00E+00  0.00E+00  1.57E-07  5.89E-05  6.36E-03  0.62157
   1938.    5.160  6.00E-08  2.25E-05  9.92E-08  3.73E-05  0.00E+00  0.00E+00  1.59E-07  5.98E-05  6.36E-03  0.59648
   1940.    5.155  8.52E-08  3.21E-05  6.14E-08  2.31E-05  0.00E+00  0.00E+00  1.47E-07  5.52E-05  6.36E-03  0.37124
   1942.    5.149  9.09E-08  3.43E-05  1.40E-08  5.30E-06  0.00E+00  0.00E+00  1.05E-07  3.96E-05  6.36E-03  0.08536
   1944.    5.144  9.35E-08  3.53E-05  2.70E-09  1.02E-06  0.00E+00  0.00E+00  9.62E-08  3.64E-05  6.36E-03  0.01667
   1946.    5.139  9.73E-08  3.69E-05  1.57E-08  5.94E-06  0.00E+00  0.00E+00  1.13E-07  4.28E-05  6.36E-03  0.09807
   1948.    5.133  7.71E-08  2.92E-05  6.53E-08  2.48E-05  0.00E+00  0.00E+00  1.42E-07  5.40E-05  6.36E-03  0.41011
   1950.    5.128  5.15E-08  1.96E-05  1.01E-07  3.85E-05  0.00E+00  0.00E+00  1.53E-07  5.81E-05  6.36E-03  0.63917
   1952.    5.123  4.45E-08  1.70E-05  1.08E-07  4.10E-05  0.00E+00  0.00E+00  1.52E-07  5.80E-05  6.36E-03  0.68493
   1954.    5.118  7.09E-08  2.71E-05  6.83E-08  2.61E-05  0.00E+00  0.00E+00  1.39E-07  5.31E-05  6.36E-03  0.43702
   1956.    5.112  7.56E-08  2.89E-05  5.86E-08  2.24E-05  0.00E+00  0.00E+00  1.34E-07  5.13E-05  6.36E-03  0.37974
   1958.    5.107  4.92E-08  1.88E-05  9.68E-08  3.71E-05  0.00E+00  0.00E+00  1.46E-07  5.60E-05  6.36E-03  0.63207
   1960.    5.102  5.31E-08  2.04E-05  8.69E-08  3.34E-05  0.00E+00  0.00E+00  1.40E-07  5.38E-05  6.36E-03  0.57033
   1962.    5.097  5.99E-08  2.31E-05  7.86E-08  3.03E-05  0.00E+00  0.00E+00  1.39E-07  5.33E-05  6.36E-03  0.52149
   1964.    5.092  5.34E-08  2.06E-05  8.59E-08  3.31E-05  0.00E+00  0.00E+00  1.39E-07  5.37E-05  6.36E-03  0.57328
   1966.    5.086  7.82E-08  3.02E-05  3.10E-08  1.20E-05  0.00E+00  0.00E+00  1.09E-07  4.22E-05  6.36E-03  0.20745
   1968.    5.081  8.14E-08  3.15E-05  3.17E-08  1.23E-05  0.00E+00  0.00E+00  1.13E-07  4.38E-05  6.36E-03  0.21616
   1970.    5.076  4.52E-08  1.75E-05  9.44E-08  3.66E-05  0.00E+00  0.00E+00  1.40E-07  5.42E-05  6.36E-03  0.64753
   1972.    5.071  2.13E-08  8.27E-06  1.22E-07  4.74E-05  0.00E+00  0.00E+00  1.43E-07  5.56E-05  6.36E-03  0.84107
   1974.    5.066  2.16E-08  8.42E-06  1.19E-07  4.64E-05  0.00E+00  0.00E+00  1.41E-07  5.49E-05  6.36E-03  0.82914
   1976.    5.061  3.31E-08  1.29E-05  1.03E-07  4.03E-05  0.00E+00  0.00E+00  1.36E-07  5.33E-05  6.36E-03  0.72479
   1978.    5.056  2.27E-08  8.89E-06  1.16E-07  4.52E-05  0.00E+00  0.00E+00  1.38E-07  5.41E-05  6.36E-03  0.81852
   1980.    5.051  1.73E-08  6.77E-06  1.21E-07  4.76E-05  0.00E+00  0.00E+00  1.39E-07  5.43E-05  6.36E-03  0.86529
   1982.    5.045  1.90E-08  7.47E-06  1.18E-07  4.65E-05  0.00E+00  0.00E+00  1.37E-07  5.39E-05  6.36E-03  0.85060
   1984.    5.040  2.01E-08  7.91E-06  1.16E-07  4.58E-05  0.00E+00  0.00E+00  1.36E-07  5.37E-05  6.36E-03  0.84279
   1986.    5.035  3.92E-08  1.54E-05  8.96E-08  3.53E-05  0.00E+00  0.00E+00  1.29E-07  5.08E-05  6.36E-03  0.65366
   1988.    5.030  7.21E-08  2.85E-05  4.22E-08  1.67E-05  0.00E+00  0.00E+00  1.14E-07  4.52E-05  6.36E-03  0.31012
   1990.    5.025  8.15E-08  3.23E-05  2.82E-08  1.12E-05  0.00E+00  0.00E+00  1.10E-07  4.34E-05  6.36E-03  0.20945
   1992.    5.020  7.48E-08  2.97E-05  1.50E-08  5.95E-06  0.00E+00  0.00E+00  8.98E-08  3.57E-05  6.36E-03  0.11233
   1994.    5.015  5.60E-08  2.22E-05  5.39E-08  2.14E-05  0.00E+00  0.00E+00  1.10E-07  4.37E-05  6.36E-03  0.40846
   1996.    5.010  3.30E-08  1.31E-05  9.56E-08  3.81E-05  0.00E+00  0.00E+00  1.29E-07  5.12E-05  6.36E-03  0.72826
   1998.    5.005  4.45E-08  1.78E-05  7.63E-08  3.05E-05  0.00E+00  0.00E+00  1.21E-07  4.82E-05  6.36E-03  0.58502
   2000.    5.000  3.54E-08  1.42E-05  8.51E-08  3.40E-05  0.00E+00  0.00E+00  1.21E-07  4.82E-05  6.36E-03  0.65970
  iv         2005
1                                             RADIANCE(WATTS/CM2-STER-XXX)
0  FREQ   WAVLEN    PATH THERMAL      SURFACE EMISSION    SURFACE REFLECTED     TOTAL RADIANCE   INTEGRAL    TOTAL
  (CM-1) (MICRN)    (CM-1)   (MICRN)    (CM-1)   (MICRN)    (CM-1)   (MICRN)    (CM-1)   (MICRN)    (CM-1)   TRANS

   2002.    4.995  1.37E-08  5.50E-06  1.13E-07  4.53E-05  0.00E+00  0.00E+00  1.27E-07  5.08E-05  6.36E-03  0.88275
   2004.    4.990  1.15E-08  4.60E-06  1.14E-07  4.59E-05  0.00E+00  0.00E+00  1.26E-07  5.05E-05  6.36E-03  0.90004
   2006.    4.985  2.35E-08  9.46E-06  9.90E-08  3.98E-05  0.00E+00  0.00E+00  1.22E-07  4.93E-05  6.36E-03  0.78458
   2008.    4.980  4.50E-08  1.81E-05  6.98E-08  2.81E-05  0.00E+00  0.00E+00  1.15E-07  4.63E-05  6.36E-03  0.55776
   2010.    4.975  3.16E-08  1.28E-05  8.56E-08  3.46E-05  0.00E+00  0.00E+00  1.17E-07  4.73E-05  6.37E-03  0.69123
   2012.    4.970  1.44E-08  5.81E-06  1.07E-07  4.32E-05  0.00E+00  0.00E+00  1.21E-07  4.90E-05  6.37E-03  0.86777
   2014.    4.965  2.61E-08  1.06E-05  9.20E-08  3.73E-05  0.00E+00  0.00E+00  1.18E-07  4.79E-05  6.37E-03  0.75401
   2016.    4.960  5.99E-08  2.43E-05  4.03E-08  1.64E-05  0.00E+00  0.00E+00  1.00E-07  4.07E-05  6.37E-03  0.33160
   2018.    4.955  7.07E-08  2.88E-05  1.94E-08  7.90E-06  0.00E+00  0.00E+00  9.01E-08  3.67E-05  6.37E-03  0.16217
   2020.    4.950  4.79E-08  1.96E-05  5.87E-08  2.40E-05  0.00E+00  0.00E+00  1.07E-07  4.35E-05  6.37E-03  0.49509
   2022.    4.946  3.03E-08  1.24E-05  8.20E-08  3.35E-05  0.00E+00  0.00E+00  1.12E-07  4.59E-05  6.37E-03  0.69490
   2024.    4.941  2.80E-08  1.15E-05  8.35E-08  3.42E-05  0.00E+00  0.00E+00  1.12E-07  4.57E-05  6.37E-03  0.71451
   2026.    4.936  2.94E-08  1.20E-05  7.90E-08  3.24E-05  0.00E+00  0.00E+00  1.08E-07  4.45E-05  6.37E-03  0.68068
   2028.    4.931  2.52E-08  1.04E-05  8.24E-08  3.39E-05  0.00E+00  0.00E+00  1.08E-07  4.43E-05  6.37E-03  0.71732
   2030.    4.926  9.54E-09  3.93E-06  1.02E-07  4.20E-05  0.00E+00  0.00E+00  1.11E-07  4.59E-05  6.37E-03  0.89362
   2032.    4.921  9.40E-09  3.88E-06  1.01E-07  4.17E-05  0.00E+00  0.00E+00  1.10E-07  4.56E-05  6.37E-03  0.89276
   2034.    4.916  1.39E-08  5.74E-06  9.49E-08  3.93E-05  0.00E+00  0.00E+00  1.09E-07  4.50E-05  6.37E-03  0.84585
   2036.    4.912  1.80E-08  7.45E-06  8.55E-08  3.54E-05  0.00E+00  0.00E+00  1.03E-07  4.29E-05  6.37E-03  0.76753
   2038.    4.907  2.59E-08  1.08E-05  7.31E-08  3.04E-05  0.00E+00  0.00E+00  9.91E-08  4.11E-05  6.37E-03  0.66284
   2040.    4.902  3.65E-08  1.52E-05  5.75E-08  2.39E-05  0.00E+00  0.00E+00  9.40E-08  3.91E-05  6.37E-03  0.52438
   2042.    4.897  4.97E-08  2.07E-05  3.96E-08  1.65E-05  0.00E+00  0.00E+00  8.94E-08  3.73E-05  6.37E-03  0.36510
   2044.    4.892  3.78E-08  1.58E-05  5.31E-08  2.22E-05  0.00E+00  0.00E+00  9.09E-08  3.80E-05  6.37E-03  0.49348
   2046.    4.888  2.80E-08  1.17E-05  6.48E-08  2.71E-05  0.00E+00  0.00E+00  9.28E-08  3.88E-05  6.37E-03  0.60683
   2048.    4.883  2.65E-08  1.11E-05  6.21E-08  2.60E-05  0.00E+00  0.00E+00  8.86E-08  3.72E-05  6.37E-03  0.58678
   2050.    4.878  2.37E-08  9.96E-06  6.05E-08  2.54E-05  0.00E+00  0.00E+00  8.42E-08  3.54E-05  6.37E-03  0.57619
   2052.    4.873  2.56E-08  1.08E-05  5.53E-08  2.33E-05  0.00E+00  0.00E+00  8.09E-08  3.41E-05  6.37E-03  0.53169
   2054.    4.869  2.62E-08  1.11E-05  5.34E-08  2.25E-05  0.00E+00  0.00E+00  7.96E-08  3.36E-05  6.37E-03  0.51697
   2056.    4.864  2.55E-08  1.08E-05  5.32E-08  2.25E-05  0.00E+00  0.00E+00  7.87E-08  3.33E-05  6.37E-03  0.52003
   2058.    4.859  2.79E-08  1.18E-05  4.83E-08  2.04E-05  0.00E+00  0.00E+00  7.61E-08  3.22E-05  6.37E-03  0.47522
   2060.    4.854  3.31E-08  1.40E-05  3.87E-08  1.64E-05  0.00E+00  0.00E+00  7.17E-08  3.04E-05  6.37E-03  0.38397
   2062.    4.850  3.16E-08  1.35E-05  3.91E-08  1.66E-05  0.00E+00  0.00E+00  7.07E-08  3.01E-05  6.37E-03  0.39158
   2064.    4.845  3.98E-08  1.70E-05  2.40E-08  1.02E-05  0.00E+00  0.00E+00  6.38E-08  2.72E-05  6.37E-03  0.24189
   2066.    4.840  3.82E-08  1.63E-05  2.79E-08  1.19E-05  0.00E+00  0.00E+00  6.60E-08  2.82E-05  6.37E-03  0.28448
   2068.    4.836  2.51E-08  1.07E-05  4.64E-08  1.99E-05  0.00E+00  0.00E+00  7.16E-08  3.06E-05  6.37E-03  0.47742
   2070.    4.831  2.16E-08  9.24E-06  5.08E-08  2.18E-05  0.00E+00  0.00E+00  7.24E-08  3.10E-05  6.37E-03  0.52633
   2072.    4.826  2.37E-08  1.02E-05  4.99E-08  2.14E-05  0.00E+00  0.00E+00  7.36E-08  3.16E-05  6.37E-03  0.52072
   2074.    4.822  2.79E-08  1.20E-05  4.65E-08  2.00E-05  0.00E+00  0.00E+00  7.44E-08  3.20E-05  6.37E-03  0.48964
   2076.    4.817  2.48E-08  1.07E-05  3.02E-08  1.30E-05  0.00E+00  0.00E+00  5.50E-08  2.37E-05  6.37E-03  0.31957
   2078.    4.812  2.42E-08  1.04E-05  1.51E-08  6.52E-06  0.00E+00  0.00E+00  3.92E-08  1.69E-05  6.37E-03  0.16203
   2080.    4.808  2.38E-08  1.03E-05  3.82E-08  1.65E-05  0.00E+00  0.00E+00  6.20E-08  2.68E-05  6.37E-03  0.41318
   2082.    4.803  1.92E-08  8.30E-06  5.15E-08  2.23E-05  0.00E+00  0.00E+00  7.07E-08  3.06E-05  6.37E-03  0.56144
   2084.    4.798  1.47E-08  6.39E-06  5.70E-08  2.48E-05  0.00E+00  0.00E+00  7.17E-08  3.11E-05  6.37E-03  0.62645
   2086.    4.794  1.61E-08  7.02E-06  5.55E-08  2.42E-05  0.00E+00  0.00E+00  7.17E-08  3.12E-05  6.37E-03  0.61532
   2088.    4.789  1.99E-08  8.69E-06  5.03E-08  2.19E-05  0.00E+00  0.00E+00  7.03E-08  3.06E-05  6.37E-03  0.56201
   2090.    4.785  2.44E-08  1.07E-05  4.27E-08  1.87E-05  0.00E+00  0.00E+00  6.72E-08  2.93E-05  6.37E-03  0.48153
   2092.    4.780  1.99E-08  8.69E-06  4.53E-08  1.98E-05  0.00E+00  0.00E+00  6.51E-08  2.85E-05  6.37E-03  0.51455
   2094.    4.776  1.69E-08  7.39E-06  4.64E-08  2.04E-05  0.00E+00  0.00E+00  6.33E-08  2.77E-05  6.37E-03  0.53221
   2096.    4.771  1.15E-08  5.06E-06  5.74E-08  2.52E-05  0.00E+00  0.00E+00  6.89E-08  3.03E-05  6.37E-03  0.66309
   2098.    4.766  1.02E-08  4.50E-06  5.94E-08  2.61E-05  0.00E+00  0.00E+00  6.96E-08  3.06E-05  6.37E-03  0.69156
   2100.    4.762  1.08E-08  4.77E-06  5.82E-08  2.57E-05  0.00E+00  0.00E+00  6.91E-08  3.05E-05  6.37E-03  0.68436
  iv         2105
1                                             RADIANCE(WATTS/CM2-STER-XXX)
0  FREQ   WAVLEN    PATH THERMAL      SURFACE EMISSION    SURFACE REFLECTED     TOTAL RADIANCE   INTEGRAL    TOTAL
  (CM-1) (MICRN)    (CM-1)   (MICRN)    (CM-1)   (MICRN)    (CM-1)   (MICRN)    (CM-1)   (MICRN)    (CM-1)   TRANS

   2102.    4.757  7.68E-09  3.39E-06  6.15E-08  2.72E-05  0.00E+00  0.00E+00  6.92E-08  3.06E-05  6.37E-03  0.72921
   2104.    4.753  7.38E-09  3.27E-06  6.13E-08  2.71E-05  0.00E+00  0.00E+00  6.87E-08  3.04E-05  6.37E-03  0.73235
   2106.    4.748  1.17E-08  5.18E-06  5.45E-08  2.42E-05  0.00E+00  0.00E+00  6.62E-08  2.94E-05  6.37E-03  0.65706
   2108.    4.744  1.00E-08  4.45E-06  5.39E-08  2.39E-05  0.00E+00  0.00E+00  6.39E-08  2.84E-05  6.37E-03  0.65480
   2110.    4.739  6.62E-09  2.95E-06  6.10E-08  2.72E-05  0.00E+00  0.00E+00  6.76E-08  3.01E-05  6.37E-03  0.74812
   2112.    4.735  7.69E-09  3.43E-06  6.56E-08  2.93E-05  0.00E+00  0.00E+00  7.33E-08  3.27E-05  6.37E-03  0.81108
   2114.    4.730  1.72E-08  7.70E-06  5.13E-08  2.29E-05  0.00E+00  0.00E+00  6.85E-08  3.06E-05  6.37E-03  0.63882
   2116.    4.726  1.53E-08  6.86E-06  4.73E-08  2.12E-05  0.00E+00  0.00E+00  6.27E-08  2.81E-05  6.37E-03  0.59537
   2118.    4.721  6.46E-09  2.90E-06  5.36E-08  2.40E-05  0.00E+00  0.00E+00  6.01E-08  2.69E-05  6.37E-03  0.67956
   2120.    4.717  7.12E-09  3.20E-06  5.07E-08  2.28E-05  0.00E+00  0.00E+00  5.78E-08  2.60E-05  6.37E-03  0.64837
   2122.    4.713  7.71E-09  3.47E-06  4.95E-08  2.23E-05  0.00E+00  0.00E+00  5.72E-08  2.58E-05  6.37E-03  0.63795
   2124.    4.708  8.55E-09  3.86E-06  4.90E-08  2.21E-05  0.00E+00  0.00E+00  5.76E-08  2.60E-05  6.37E-03  0.63766
   2126.    4.704  6.78E-09  3.06E-06  5.36E-08  2.42E-05  0.00E+00  0.00E+00  6.04E-08  2.73E-05  6.37E-03  0.70318
   2128.    4.699  7.48E-09  3.39E-06  5.30E-08  2.40E-05  0.00E+00  0.00E+00  6.05E-08  2.74E-05  6.37E-03  0.70085
   2130.    4.695  9.42E-09  4.28E-06  5.24E-08  2.38E-05  0.00E+00  0.00E+00  6.19E-08  2.81E-05  6.37E-03  0.69983
   2132.    4.690  3.89E-09  1.77E-06  6.52E-08  2.96E-05  0.00E+00  0.00E+00  6.91E-08  3.14E-05  6.37E-03  0.87741
   2134.    4.686  4.64E-09  2.11E-06  6.70E-08  3.05E-05  0.00E+00  0.00E+00  7.16E-08  3.26E-05  6.37E-03  0.90829
   2136.    4.682  1.49E-08  6.80E-06  5.49E-08  2.51E-05  0.00E+00  0.00E+00  6.98E-08  3.19E-05  6.38E-03  0.75073
   2138.    4.677  1.63E-08  7.44E-06  5.34E-08  2.44E-05  0.00E+00  0.00E+00  6.96E-08  3.18E-05  6.38E-03  0.73640
   2140.    4.673  8.10E-09  3.71E-06  6.23E-08  2.85E-05  0.00E+00  0.00E+00  7.04E-08  3.23E-05  6.38E-03  0.86773
   2142.    4.669  2.90E-09  1.33E-06  6.75E-08  3.10E-05  0.00E+00  0.00E+00  7.04E-08  3.23E-05  6.38E-03  0.94787
   2144.    4.664  6.11E-09  2.81E-06  6.32E-08  2.91E-05  0.00E+00  0.00E+00  6.93E-08  3.19E-05  6.38E-03  0.89432
   2146.    4.660  8.57E-09  3.95E-06  5.99E-08  2.76E-05  0.00E+00  0.00E+00  6.85E-08  3.15E-05  6.38E-03  0.85488
   2148.    4.655  5.41E-09  2.49E-06  6.29E-08  2.90E-05  0.00E+00  0.00E+00  6.83E-08  3.15E-05  6.38E-03  0.90556
   2150.    4.651  3.32E-09  1.53E-06  6.46E-08  2.99E-05  0.00E+00  0.00E+00  6.79E-08  3.14E-05  6.38E-03  0.93746
   2152.    4.647  5.69E-09  2.64E-06  6.12E-08  2.83E-05  0.00E+00  0.00E+00  6.69E-08  3.10E-05  6.38E-03  0.89520
   2154.    4.643  5.71E-09  2.65E-06  6.05E-08  2.81E-05  0.00E+00  0.00E+00  6.62E-08  3.07E-05  6.38E-03  0.89351
   2156.    4.638  4.39E-09  2.04E-06  6.15E-08  2.86E-05  0.00E+00  0.00E+00  6.59E-08  3.06E-05  6.38E-03  0.91555
   2158.    4.634  4.21E-09  1.96E-06  6.10E-08  2.84E-05  0.00E+00  0.00E+00  6.53E-08  3.04E-05  6.38E-03  0.91687
   2160.    4.630  5.17E-09  2.41E-06  5.93E-08  2.77E-05  0.00E+00  0.00E+00  6.45E-08  3.01E-05  6.38E-03  0.89830
   2162.    4.625  9.37E-09  4.38E-06  5.39E-08  2.52E-05  0.00E+00  0.00E+00  6.33E-08  2.96E-05  6.38E-03  0.82376
   2164.    4.621  6.45E-09  3.02E-06  5.66E-08  2.65E-05  0.00E+00  0.00E+00  6.31E-08  2.95E-05  6.38E-03  0.87293
   2166.    4.617  4.02E-09  1.89E-06  5.88E-08  2.76E-05  0.00E+00  0.00E+00  6.28E-08  2.94E-05  6.38E-03  0.91288
   2168.    4.613  3.93E-09  1.85E-06  5.83E-08  2.74E-05  0.00E+00  0.00E+00  6.22E-08  2.92E-05  6.38E-03  0.91328
   2170.    4.608  5.23E-09  2.46E-06  5.62E-08  2.65E-05  0.00E+00  0.00E+00  6.14E-08  2.89E-05  6.38E-03  0.88811
   2172.    4.604  5.64E-09  2.66E-06  5.52E-08  2.60E-05  0.00E+00  0.00E+00  6.08E-08  2.87E-05  6.38E-03  0.87958
   2174.    4.600  4.43E-09  2.09E-06  5.60E-08  2.65E-05  0.00E+00  0.00E+00  6.04E-08  2.85E-05  6.38E-03  0.89973
   2176.    4.596  4.37E-09  2.07E-06  5.54E-08  2.63E-05  0.00E+00  0.00E+00  5.98E-08  2.83E-05  6.38E-03  0.89894
   2178.    4.591  4.44E-09  2.10E-06  5.48E-08  2.60E-05  0.00E+00  0.00E+00  5.92E-08  2.81E-05  6.38E-03  0.89591
   2180.    4.587  5.71E-09  2.72E-06  5.28E-08  2.51E-05  0.00E+00  0.00E+00  5.85E-08  2.78E-05  6.38E-03  0.87108
   2182.    4.583  5.83E-09  2.78E-06  5.21E-08  2.48E-05  0.00E+00  0.00E+00  5.80E-08  2.76E-05  6.38E-03  0.86738
   2184.    4.579  5.42E-09  2.58E-06  5.20E-08  2.48E-05  0.00E+00  0.00E+00  5.74E-08  2.74E-05  6.38E-03  0.87266
   2186.    4.575  6.95E-09  3.32E-06  4.98E-08  2.38E-05  0.00E+00  0.00E+00  5.68E-08  2.71E-05  6.38E-03  0.84285
   2188.    4.570  6.60E-09  3.16E-06  4.97E-08  2.38E-05  0.00E+00  0.00E+00  5.63E-08  2.69E-05  6.38E-03  0.84785
   2190.    4.566  5.36E-09  2.57E-06  5.05E-08  2.42E-05  0.00E+00  0.00E+00  5.59E-08  2.68E-05  6.38E-03  0.86931
   2192.    4.562  5.64E-09  2.71E-06  4.97E-08  2.39E-05  0.00E+00  0.00E+00  5.53E-08  2.66E-05  6.38E-03  0.86249
   2194.    4.558  6.01E-09  2.89E-06  4.88E-08  2.35E-05  0.00E+00  0.00E+00  5.48E-08  2.64E-05  6.38E-03  0.85371
   2196.    4.554  5.68E-09  2.74E-06  4.86E-08  2.34E-05  0.00E+00  0.00E+00  5.43E-08  2.62E-05  6.38E-03  0.85784
   2198.    4.550  6.18E-09  2.99E-06  4.75E-08  2.29E-05  0.00E+00  0.00E+00  5.37E-08  2.59E-05  6.38E-03  0.84554
   2200.    4.545  7.06E-09  3.42E-06  4.60E-08  2.22E-05  0.00E+00  0.00E+00  5.30E-08  2.57E-05  6.38E-03  0.82557
0INTEGRATED ABSORPTION FROM    2 TO 2200 CM-1 =   1500.34 CM-1
 AVERAGE TRANSMITTANCE =0.3174

0INTEGRATED RADIANCE =  6.379E-03 WATTS CM-2 STER-1
 MINIMUM RADIANCE    =  1.075E-09 WATTS CM-2 STER-1 (CM-1)-1 AT        2.0 CM-1
 MAXIMUM RADIANCE    =  9.411E-06 WATTS CM-2 STER-1 (CM-1)-1 AT      498.0 CM-1
 BOUNDARY TEMPERATURE =     257.20 K
 BOUNDARY EMISSIVITY =       0.971
0 CARD 5 *****    0


