*****  MODTRAN3 Version 1.3  12/1/95  *****
0 CARD 1  *****T   6    3    1    0    0    0    0    0    0    0    0    0   -1   0.000  -1.00
 co2mx co2rat ch4rat h2orat t_o3rat s_o3rat scalefreon    800.00000       2.4242425       1.0000000       1.0000000       1.0000000       1.0000000       1.0000000    
0 CARD 2  *****    0    0    0    0    0    0     0.000     0.000     0.000     0.000     0.000
0 CARD 3  *****    70.000     0.000   180.000     0.000     0.000     0.000    0
0 CARD 4  *****         2      2200         2         3
0 PROGRAM WILL COMPUTE RADIANCE                
0 ATMOSPHERIC MODEL
          TEMPERATURE =    6     1976 U S STANDARD   
          WATER VAPOR =    6     1976 U S STANDARD   
          OZONE       =    6     1976 U S STANDARD   
                      M4 =     6 M5 =     6 M6 =     6 MDEF =     1
0 SLANT PATH TO SPACE
          H1    =     70.000 KM
          HMIN  =      0.000 KM
          ANGLE =    180.000 DEG
0 FREQUENCY RANGE
             IV1 =         2 CM-1  (   5000.00 MICROMETERS)
             IV2 =      2200 CM-1  (      4.55 MICROMETERS)
             IDV =         2 CM-1
           IFWHM =         3 CM-1
1
  ATMOSPHERIC PROFILES

   I     Z       P       T        N2       CNTMSLF MOL SCAT     N-1     O3 (UV)  O2 (UV)
        (KM)    (MB)    (K)            (MOL/CM2 KM)   (-)       (-)  (ATM CM/KM) (ATM CM/KM)

   1     0.00 1013.000  288.2  8.243E-01 1.566E+20 9.475E-01 2.722E-04 2.519E-03 3.535E+04
   2     1.00  898.800  281.7  6.792E-01 7.926E+19 8.601E-01 2.471E-04 2.519E-03 3.079E+04
   3     2.00  795.000  275.2  5.568E-01 3.781E+19 7.788E-01 2.238E-04 2.519E-03 2.678E+04
   4     3.00  701.200  268.7  4.543E-01 1.457E+19 7.035E-01 2.022E-04 2.333E-03 2.327E+04
   5     4.00  616.600  262.2  3.690E-01 5.440E+18 6.340E-01 1.823E-04 2.146E-03 2.021E+04
   6     5.00  540.500  255.7  2.981E-01 1.842E+18 5.698E-01 1.639E-04 2.146E-03 1.753E+04
   7     6.00  472.200  249.2  2.396E-01 6.495E+17 5.108E-01 1.469E-04 2.099E-03 1.519E+04
   8     7.00  411.100  242.7  1.914E-01 1.983E+17 4.566E-01 1.313E-04 2.286E-03 1.315E+04
   9     8.00  356.500  236.2  1.520E-01 6.471E+16 4.069E-01 1.170E-04 2.426E-03 1.137E+04
  10     9.00  308.000  229.7  1.200E-01 9.518E+15 3.615E-01 1.040E-04 3.312E-03 9.815E+03
  11    10.00  265.000  223.3  9.396E-02 1.456E+15 3.199E-01 9.201E-05 4.198E-03 8.456E+03
  12    11.00  227.000  216.8  7.314E-02 3.023E+14 2.823E-01 8.118E-05 6.062E-03 7.276E+03
  13    12.00  194.000  216.7  5.347E-02 6.151E+13 2.413E-01 6.941E-05 7.464E-03 6.050E+03
  14    13.00  165.800  216.7  3.906E-02 1.456E+13 2.063E-01 5.932E-05 7.927E-03 5.045E+03
  15    14.00  141.700  216.7  2.853E-02 3.173E+12 1.763E-01 5.070E-05 8.861E-03 4.220E+03
  16    15.00  121.100  216.7  2.084E-02 1.649E+12 1.507E-01 4.333E-05 9.793E-03 3.540E+03
  17    16.00  103.500  216.7  1.522E-02 7.519E+11 1.288E-01 3.703E-05 1.120E-02 2.977E+03
  18    17.00   88.500  216.7  1.113E-02 5.223E+11 1.101E-01 3.166E-05 1.306E-02 2.510E+03
  19    18.00   75.650  216.7  8.131E-03 3.767E+11 9.411E-02 2.707E-05 1.493E-02 2.119E+03
  20    19.00   64.670  216.7  5.942E-03 2.789E+11 8.045E-02 2.314E-05 1.632E-02 1.792E+03
  21    20.00   55.290  216.7  4.343E-03 2.092E+11 6.878E-02 1.978E-05 1.773E-02 1.519E+03
  22    21.00   47.290  217.6  3.151E-03 1.576E+11 5.859E-02 1.685E-05 1.773E-02 1.283E+03
  23    22.00   40.470  218.6  2.287E-03 1.196E+11 4.991E-02 1.435E-05 1.819E-02 1.086E+03
  24    23.00   34.670  219.6  1.663E-03 9.288E+10 4.256E-02 1.224E-05 1.773E-02 9.203E+02
  25    24.00   29.720  220.6  1.211E-03 7.090E+10 3.632E-02 1.045E-05 1.679E-02 7.814E+02
  26    25.00   25.490  221.6  8.828E-04 5.473E+10 3.101E-02 8.918E-06 1.586E-02 6.643E+02
  27    30.00   11.970  226.5  1.863E-04 1.317E+10 1.425E-02 4.097E-06 9.330E-03 3.011E+02
  28    35.00    5.746  236.5  3.938E-05 2.994E+09 6.550E-03 1.884E-06 5.130E-03 1.375E+02
  29    40.00    2.871  250.4  8.771E-06 7.012E+08 3.091E-03 8.889E-07 2.255E-03 6.472E+01
  30    45.00    1.491  264.2  2.125E-06 1.837E+08 1.521E-03 4.375E-07 7.982E-04 3.182E+01
  31    50.00    0.798  270.7  5.795E-07 5.009E+07 7.945E-04 2.285E-07 2.461E-04 1.660E+01
  32    70.00    0.052  219.6  3.770E-09 1.462E+05 6.408E-05 1.843E-08 1.921E-06 1.338E+00
  33   100.00    0.000  195.1  1.795E-13 9.093E-02 4.422E-07 1.272E-10 1.767E-08 7.070E-03
1
  ATMOSPHERIC PROFILES

   I     Z       P       T      CNTMFRN     HNO3    AEROSOL 1 AEROSOL 2 AEROSOL 3 AEROSOL 4 AER1*RH   CIRRUS         RH
        (KM)    (MB)    (K)   MOL/CM2 KM ATM CM/KM   (-)       (-)       (-)       (-)       (-)       (-)      (PERCNT)

   1     0.00 1013.000  288.2  2.007E+22 0.000E+00 0.000E+00 0.000E+00 0.000E+00 0.000E+00 0.000E+00 0.000E+00 4.584E+01
   2     1.00  898.800  281.7  1.299E+22 0.000E+00 0.000E+00 0.000E+00 0.000E+00 0.000E+00 0.000E+00 0.000E+00 4.898E+01
   3     2.00  795.000  275.2  8.133E+21 0.000E+00 0.000E+00 0.000E+00 0.000E+00 0.000E+00 0.000E+00 0.000E+00 5.194E+01
   4     3.00  701.200  268.7  4.567E+21 0.000E+00 0.000E+00 0.000E+00 0.000E+00 0.000E+00 0.000E+00 0.000E+00 5.071E+01
   5     4.00  616.600  262.2  2.518E+21 0.000E+00 0.000E+00 0.000E+00 0.000E+00 0.000E+00 0.000E+00 0.000E+00 5.004E+01
   6     5.00  540.500  255.7  1.318E+21 0.000E+00 0.000E+00 0.000E+00 0.000E+00 0.000E+00 0.000E+00 0.000E+00 4.836E+01
   7     6.00  472.200  249.2  7.018E+20 0.000E+00 0.000E+00 0.000E+00 0.000E+00 0.000E+00 0.000E+00 0.000E+00 4.918E+01
   8     7.00  411.100  242.7  3.468E+20 0.000E+00 0.000E+00 0.000E+00 0.000E+00 0.000E+00 0.000E+00 0.000E+00 4.814E+01
   9     8.00  356.500  236.2  1.765E+20 0.000E+00 0.000E+00 0.000E+00 0.000E+00 0.000E+00 0.000E+00 0.000E+00 5.054E+01
  10     9.00  308.000  229.7  6.016E+19 0.000E+00 0.000E+00 0.000E+00 0.000E+00 0.000E+00 0.000E+00 0.000E+00 3.708E+01
  11    10.00  265.000  223.3  2.083E+19 0.000E+00 0.000E+00 0.000E+00 0.000E+00 0.000E+00 0.000E+00 0.000E+00 2.869E+01
  12    11.00  227.000  216.8  8.374E+18 0.000E+00 0.000E+00 0.000E+00 0.000E+00 0.000E+00 0.000E+00 0.000E+00 2.743E+01
  13    12.00  194.000  216.7  3.230E+18 0.000E+00 0.000E+00 0.000E+00 0.000E+00 0.000E+00 0.000E+00 0.000E+00 1.252E+01
  14    13.00  165.800  216.7  1.343E+18 0.000E+00 0.000E+00 0.000E+00 0.000E+00 0.000E+00 0.000E+00 0.000E+00 6.092E+00
  15    14.00  141.700  216.7  5.358E+17 0.000E+00 0.000E+00 0.000E+00 0.000E+00 0.000E+00 0.000E+00 0.000E+00 2.844E+00
  16    15.00  121.100  216.7  3.301E+17 0.000E+00 0.000E+00 0.000E+00 0.000E+00 0.000E+00 0.000E+00 0.000E+00 2.050E+00
  17    16.00  103.500  216.7  1.905E+17 0.000E+00 0.000E+00 0.000E+00 0.000E+00 0.000E+00 0.000E+00 0.000E+00 1.384E+00
  18    17.00   88.500  216.7  1.358E+17 0.000E+00 0.000E+00 0.000E+00 0.000E+00 0.000E+00 0.000E+00 0.000E+00 1.154E+00
  19    18.00   75.650  216.7  9.855E+16 0.000E+00 0.000E+00 0.000E+00 0.000E+00 0.000E+00 0.000E+00 0.000E+00 9.798E-01
  20    19.00   64.670  216.7  7.249E+16 0.000E+00 0.000E+00 0.000E+00 0.000E+00 0.000E+00 0.000E+00 0.000E+00 8.431E-01
  21    20.00   55.290  216.7  5.368E+16 0.000E+00 0.000E+00 0.000E+00 0.000E+00 0.000E+00 0.000E+00 0.000E+00 7.302E-01
  22    21.00   47.290  217.6  3.969E+16 0.000E+00 0.000E+00 0.000E+00 0.000E+00 0.000E+00 0.000E+00 0.000E+00 5.702E-01
  23    22.00   40.470  218.6  2.946E+16 0.000E+00 0.000E+00 0.000E+00 0.000E+00 0.000E+00 0.000E+00 0.000E+00 4.422E-01
  24    23.00   34.670  219.6  2.213E+16 0.000E+00 0.000E+00 0.000E+00 0.000E+00 0.000E+00 0.000E+00 0.000E+00 3.472E-01
  25    24.00   29.720  220.6  1.650E+16 0.000E+00 0.000E+00 0.000E+00 0.000E+00 0.000E+00 0.000E+00 0.000E+00 2.707E-01
  26    25.00   25.490  221.6  1.238E+16 0.000E+00 0.000E+00 0.000E+00 0.000E+00 0.000E+00 0.000E+00 0.000E+00 2.125E-01
  27    30.00   11.970  226.5  2.790E+15 0.000E+00 0.000E+00 0.000E+00 0.000E+00 0.000E+00 0.000E+00 0.000E+00 6.101E-02
  28    35.00    5.746  236.5  6.115E+14 0.000E+00 0.000E+00 0.000E+00 0.000E+00 0.000E+00 0.000E+00 0.000E+00 1.056E-02
  29    40.00    2.871  250.4  1.397E+14 0.000E+00 0.000E+00 0.000E+00 0.000E+00 0.000E+00 0.000E+00 0.000E+00 1.460E-03
  30    45.00    1.491  264.2  3.518E+13 0.000E+00 0.000E+00 0.000E+00 0.000E+00 0.000E+00 0.000E+00 0.000E+00 2.502E-04
  31    50.00    0.798  270.7  9.595E+12 0.000E+00 0.000E+00 0.000E+00 0.000E+00 0.000E+00 0.000E+00 0.000E+00 8.159E-05
  32    70.00    0.052  219.6  4.181E+10 0.000E+00 0.000E+00 0.000E+00 0.000E+00 0.000E+00 0.000E+00 0.000E+00 4.357E-04
  33   100.00    0.000  195.1  2.275E+05 0.000E+00 0.000E+00 0.000E+00 0.000E+00 0.000E+00 0.000E+00 0.000E+00 8.646E-06
1
  ATMOSPHERIC PROFILES

   I      Z       P       T      H2O      O3       CO2      CO       CH4      N2O      O2       NH3      NO       NO2      SO2
         (KM)    (MB)    (K)  (                                    MBAR                                                       )
   1     0.00 1013.000  288.2  5.89E+00 2.66E-02 8.00E+02 0.00E+00 1.70E+00 0.00E+00 2.09E+05 0.00E+00 0.00E+00 0.00E+00 0.00E+00
   2     1.00  898.800  281.7  4.19E+00 2.93E-02 8.00E+02 0.00E+00 1.70E+00 0.00E+00 2.09E+05 0.00E+00 0.00E+00 0.00E+00 0.00E+00
   3     2.00  795.000  275.2  2.90E+00 3.24E-02 8.00E+02 0.00E+00 1.70E+00 0.00E+00 2.09E+05 0.00E+00 0.00E+00 0.00E+00 0.00E+00
   4     3.00  701.200  268.7  1.80E+00 3.32E-02 8.00E+02 0.00E+00 1.70E+00 0.00E+00 2.09E+05 0.00E+00 0.00E+00 0.00E+00 0.00E+00
   5     4.00  616.600  262.2  1.10E+00 3.39E-02 8.00E+02 0.00E+00 1.70E+00 0.00E+00 2.09E+05 0.00E+00 0.00E+00 0.00E+00 0.00E+00
   6     5.00  540.500  255.7  6.39E-01 3.77E-02 8.00E+02 0.00E+00 1.70E+00 0.00E+00 2.09E+05 0.00E+00 0.00E+00 0.00E+00 0.00E+00
   7     6.00  472.200  249.2  3.80E-01 4.11E-02 8.00E+02 0.00E+00 1.70E+00 0.00E+00 2.09E+05 0.00E+00 0.00E+00 0.00E+00 0.00E+00
   8     7.00  411.100  242.7  2.10E-01 5.01E-02 8.00E+02 0.00E+00 1.70E+00 0.00E+00 2.09E+05 0.00E+00 0.00E+00 0.00E+00 0.00E+00
   9     8.00  356.500  236.2  1.20E-01 5.97E-02 8.00E+02 0.00E+00 1.70E+00 0.00E+00 2.09E+05 0.00E+00 0.00E+00 0.00E+00 0.00E+00
  10     9.00  308.000  229.7  4.60E-02 9.17E-02 8.00E+02 0.00E+00 1.69E+00 0.00E+00 2.09E+05 0.00E+00 0.00E+00 0.00E+00 0.00E+00
  11    10.00  265.000  223.3  1.80E-02 1.31E-01 8.00E+02 0.00E+00 1.68E+00 0.00E+00 2.09E+05 0.00E+00 0.00E+00 0.00E+00 0.00E+00
  12    11.00  227.000  216.8  8.19E-03 2.15E-01 8.00E+02 0.00E+00 1.67E+00 0.00E+00 2.09E+05 0.00E+00 0.00E+00 0.00E+00 0.00E+00
  13    12.00  194.000  216.7  3.69E-03 3.10E-01 8.00E+02 0.00E+00 1.66E+00 0.00E+00 2.09E+05 0.00E+00 0.00E+00 0.00E+00 0.00E+00
  14    13.00  165.800  216.7  1.80E-03 3.85E-01 8.00E+02 0.00E+00 1.64E+00 0.00E+00 2.09E+05 0.00E+00 0.00E+00 0.00E+00 0.00E+00
  15    14.00  141.700  216.7  8.39E-04 5.03E-01 8.00E+02 0.00E+00 1.63E+00 0.00E+00 2.09E+05 0.00E+00 0.00E+00 0.00E+00 0.00E+00
  16    15.00  121.100  216.7  6.05E-04 6.50E-01 8.00E+02 0.00E+00 1.61E+00 0.00E+00 2.09E+05 0.00E+00 0.00E+00 0.00E+00 0.00E+00
  17    16.00  103.500  216.7  4.08E-04 8.70E-01 8.00E+02 0.00E+00 1.58E+00 0.00E+00 2.09E+05 0.00E+00 0.00E+00 0.00E+00 0.00E+00
  18    17.00   88.500  216.7  3.40E-04 1.19E+00 8.00E+02 0.00E+00 1.55E+00 0.00E+00 2.09E+05 0.00E+00 0.00E+00 0.00E+00 0.00E+00
  19    18.00   75.650  216.7  2.89E-04 1.59E+00 8.00E+02 0.00E+00 1.52E+00 0.00E+00 2.09E+05 0.00E+00 0.00E+00 0.00E+00 0.00E+00
  20    19.00   64.670  216.7  2.49E-04 2.03E+00 8.00E+02 0.00E+00 1.48E+00 0.00E+00 2.09E+05 0.00E+00 0.00E+00 0.00E+00 0.00E+00
  21    20.00   55.290  216.7  2.15E-04 2.58E+00 8.00E+02 0.00E+00 1.42E+00 0.00E+00 2.09E+05 0.00E+00 0.00E+00 0.00E+00 0.00E+00
  22    21.00   47.290  217.6  1.87E-04 3.03E+00 8.00E+02 0.00E+00 1.36E+00 0.00E+00 2.09E+05 0.00E+00 0.00E+00 0.00E+00 0.00E+00
  23    22.00   40.470  218.6  1.63E-04 3.65E+00 8.00E+02 0.00E+00 1.27E+00 0.00E+00 2.09E+05 0.00E+00 0.00E+00 0.00E+00 0.00E+00
  24    23.00   34.670  219.6  1.44E-04 4.17E+00 8.00E+02 0.00E+00 1.19E+00 0.00E+00 2.09E+05 0.00E+00 0.00E+00 0.00E+00 0.00E+00
  25    24.00   29.720  220.6  1.25E-04 4.63E+00 8.00E+02 0.00E+00 1.12E+00 0.00E+00 2.09E+05 0.00E+00 0.00E+00 0.00E+00 0.00E+00
  26    25.00   25.490  221.6  1.10E-04 5.12E+00 8.00E+02 0.00E+00 1.05E+00 0.00E+00 2.09E+05 0.00E+00 0.00E+00 0.00E+00 0.00E+00
  27    30.00   11.970  226.5  5.41E-05 6.55E+00 8.00E+02 0.00E+00 9.14E-01 0.00E+00 2.09E+05 0.00E+00 0.00E+00 0.00E+00 0.00E+00
  28    35.00    5.746  236.5  2.58E-05 7.84E+00 8.00E+02 0.00E+00 7.46E-01 0.00E+00 2.09E+05 0.00E+00 0.00E+00 0.00E+00 0.00E+00
  29    40.00    2.871  250.4  1.25E-05 7.30E+00 8.00E+02 0.00E+00 5.64E-01 0.00E+00 2.09E+05 0.00E+00 0.00E+00 0.00E+00 0.00E+00
  30    45.00    1.491  264.2  6.38E-06 5.25E+00 8.00E+02 0.00E+00 3.63E-01 0.00E+00 2.09E+05 0.00E+00 0.00E+00 0.00E+00 0.00E+00
  31    50.00    0.798  270.7  3.33E-06 3.10E+00 8.00E+02 0.00E+00 2.10E-01 0.00E+00 2.09E+05 0.00E+00 0.00E+00 0.00E+00 0.00E+00
  32    70.00    0.052  219.6  1.80E-07 3.00E-01 8.00E+02 0.00E+00 1.50E-01 0.00E+00 2.09E+05 0.00E+00 0.00E+00 0.00E+00 0.00E+00
  33   100.00    0.000  195.1  1.42E-10 4.00E-01 4.73E+02 0.00E+00 1.20E-01 0.00E+00 1.60E+05 0.00E+00 0.00E+00 0.00E+00 0.00E+00
1
  ATMOSPHERIC PROFILES

   I      Z       P       T     CFC-11   CFC-12   CFC-13   CFC-14   CFC-22   CFC-113  CFC-114  CFC-115  CLONO2    HNO4    CHCL2F 
                                 CCL4     N2O5  
         (KM)    (MB)    (K)  (                                 ATM CM/KM                                                     )
   1     0.00 1013.000  288.2  1.33E-05 2.27E-05 9.47E-14 9.47E-14 5.68E-06 1.80E-06 1.14E-06 9.47E-14 5.44E-07 4.11E-08 9.47E-14
                               1.23E-05 2.29E-11
   2     1.00  898.800  281.7  1.20E-05 2.06E-05 8.60E-14 8.60E-14 5.15E-06 1.63E-06 1.03E-06 8.60E-14 4.41E-07 1.84E-07 8.60E-14
                               1.12E-05 8.20E-11
   3     2.00  795.000  275.2  1.09E-05 1.87E-05 7.78E-14 7.78E-14 4.66E-06 1.48E-06 9.34E-07 7.78E-14 3.51E-07 2.99E-07 7.78E-14
                               1.01E-05 1.30E-10
   4     3.00  701.200  268.7  9.84E-06 1.69E-05 7.03E-14 7.03E-14 4.21E-06 1.34E-06 8.44E-07 7.03E-14 2.73E-07 3.89E-07 7.03E-14
                               9.14E-06 1.67E-10
   5     4.00  616.600  262.2  8.87E-06 1.52E-05 6.34E-14 6.34E-14 3.79E-06 1.20E-06 7.60E-07 6.34E-14 2.07E-07 4.59E-07 6.34E-14
                               8.24E-06 1.96E-10
   6     5.00  540.500  255.7  7.97E-06 1.37E-05 5.69E-14 5.69E-14 3.40E-06 1.08E-06 6.83E-07 5.69E-14 1.57E-07 1.03E-06 5.69E-14
                               7.39E-06 2.05E-10
   7     6.00  472.200  249.2  7.15E-06 1.23E-05 5.10E-14 5.10E-14 3.05E-06 9.70E-07 6.13E-07 5.10E-14 1.15E-07 1.48E-06 5.10E-14
                               6.61E-06 2.11E-10
   8     7.00  411.100  242.7  6.39E-06 1.10E-05 4.56E-14 4.56E-14 2.73E-06 8.67E-07 5.48E-07 4.56E-14 7.96E-08 1.82E-06 4.56E-14
                               5.90E-06 2.12E-10
   9     8.00  356.500  236.2  5.69E-06 9.76E-06 4.07E-14 4.07E-14 2.43E-06 7.73E-07 4.88E-07 4.07E-14 5.04E-08 2.07E-06 4.07E-14
                               5.25E-06 2.10E-10
  10     9.00  308.000  229.7  5.05E-06 8.66E-06 3.61E-14 3.61E-14 2.15E-06 6.86E-07 4.33E-07 3.61E-14 4.36E-08 1.77E-06 3.61E-14
                               4.66E-06 2.08E-10
  11    10.00  265.000  223.3  4.46E-06 7.66E-06 3.20E-14 3.20E-14 1.91E-06 6.06E-07 3.84E-07 3.20E-14 3.76E-08 1.51E-06 3.20E-14
                               4.12E-06 2.03E-10
  12    11.00  227.000  216.8  3.93E-06 6.75E-06 2.82E-14 2.82E-14 1.68E-06 5.34E-07 3.38E-07 2.82E-14 3.22E-08 1.28E-06 2.82E-14
                               3.64E-06 1.97E-10
  13    12.00  194.000  216.7  3.35E-06 5.76E-06 2.41E-14 2.41E-14 1.44E-06 4.56E-07 2.89E-07 2.41E-14 2.68E-08 1.05E-06 2.41E-14
                               3.11E-06 1.83E-10
  14    13.00  165.800  216.7  2.78E-06 4.85E-06 2.06E-14 2.06E-14 1.21E-06 3.82E-07 2.45E-07 2.06E-14 1.65E-07 1.17E-06 2.06E-14
                               2.58E-06 9.08E-09
  15    14.00  141.700  216.7  2.31E-06 4.09E-06 1.76E-14 1.76E-14 1.03E-06 3.21E-07 2.07E-07 1.76E-14 2.63E-07 1.22E-06 1.76E-14
                               2.13E-06 1.54E-08
  16    15.00  121.100  216.7  1.91E-06 3.44E-06 1.51E-14 1.51E-14 8.70E-07 2.69E-07 1.75E-07 1.51E-14 3.28E-07 1.24E-06 1.51E-14
                               1.76E-06 1.97E-08
  17    16.00  103.500  216.7  1.58E-06 2.90E-06 1.29E-14 1.29E-14 7.36E-07 2.25E-07 1.48E-07 1.29E-14 3.69E-07 1.22E-06 1.29E-14
                               1.45E-06 2.24E-08
  18    17.00   88.500  216.7  1.24E-06 2.36E-06 1.10E-14 1.10E-14 6.12E-07 1.82E-07 1.23E-07 1.10E-14 1.12E-06 1.57E-06 1.10E-14
                               1.12E-06 9.66E-08
  19    18.00   75.650  216.7  9.56E-07 1.92E-06 9.40E-15 9.40E-15 5.08E-07 1.46E-07 1.02E-07 9.40E-15 1.64E-06 1.79E-06 9.40E-15
                               8.52E-07 1.49E-07
  20    19.00   64.670  216.7  7.31E-07 1.56E-06 8.04E-15 8.04E-15 4.22E-07 1.17E-07 8.47E-08 8.04E-15 1.99E-06 1.91E-06 8.04E-15
                               6.38E-07 1.84E-07
  21    20.00   55.290  216.7  5.51E-07 1.26E-06 6.87E-15 6.87E-15 3.50E-07 9.35E-08 7.01E-08 6.87E-15 2.20E-06 1.96E-06 6.87E-15
                               4.69E-07 2.06E-07
  22    21.00   47.290  217.6  4.02E-07 1.00E-06 5.85E-15 5.85E-15 2.86E-07 7.25E-08 5.71E-08 5.85E-15 2.69E-06 2.06E-06 5.85E-15
                               3.35E-07 2.43E-07
  23    22.00   40.470  218.6  2.85E-07 7.88E-07 4.99E-15 4.99E-15 2.34E-07 5.57E-08 4.64E-08 4.99E-15 2.99E-06 2.09E-06 4.99E-15
                               2.30E-07 2.64E-07
  24    23.00   34.670  219.6  1.94E-07 6.17E-07 4.25E-15 4.25E-15 1.91E-07 4.22E-08 3.77E-08 4.25E-15 3.15E-06 2.06E-06 4.25E-15
                               1.49E-07 2.75E-07
  25    24.00   29.720  220.6  1.23E-07 4.79E-07 3.63E-15 3.63E-15 1.56E-07 3.16E-08 3.06E-08 3.63E-15 3.19E-06 2.00E-06 3.63E-15
                               8.71E-08 2.76E-07
  26    25.00   25.490  221.6  8.45E-08 3.68E-07 3.10E-15 3.10E-15 1.27E-07 2.36E-08 2.46E-08 3.10E-15 3.01E-06 1.80E-06 3.10E-15
                               5.84E-08 2.39E-07
  27    30.00   11.970  226.5  5.56E-09 8.38E-08 1.42E-15 1.42E-15 4.31E-08 4.15E-09 8.02E-09 1.42E-15 1.62E-06 7.26E-07 1.42E-15
                               2.50E-09 7.86E-08
  28    35.00    5.746  236.5  1.30E-10 1.40E-08 6.55E-16 6.55E-16 1.35E-08 4.69E-10 2.39E-09 6.55E-16 3.43E-07 9.61E-08 6.55E-16
                               2.59E-11 7.08E-09
  29    40.00    2.871  250.4  5.71E-13 1.88E-09 3.09E-16 3.09E-16 4.29E-09 3.80E-11 7.17E-10 3.09E-16 1.32E-08 3.08E-09 3.09E-16
                               1.22E-14 6.58E-11
  30    45.00    1.491  264.2  1.40E-14 3.24E-10 1.52E-16 1.52E-16 1.58E-09 4.89E-12 2.46E-10 1.52E-16 2.55E-10 1.33E-10 1.52E-16
                               8.47E-17 5.99E-13
  31    50.00    0.798  270.7  4.74E-16 6.76E-11 7.94E-17 7.94E-17 6.97E-10 7.86E-13 9.92E-11 7.94E-17 3.71E-12 6.06E-12 7.94E-17
                               8.68E-19 4.99E-15
  32    70.00    0.052  219.6  3.26E-21 2.50E-13 6.40E-18 6.40E-18 4.60E-11 1.13E-15 3.75E-12 6.40E-18 4.63E-19 2.06E-16 6.40E-18
                               6.32E-26 5.25E-23
  33   100.00    0.000  195.1  1.37E-30 1.10E-18 4.42E-20 4.42E-20 7.91E-14 5.79E-22 9.41E-16 4.42E-20 3.57E-35 1.47E-31 4.42E-20
                               2.25E-38 0.00E+00


 CASE 3A: GIVEN H1,H2=SPACE,ANGLE



 TANGENT PATH WITH H1 =     70.000 AND ANGLE =    180.000 INTERSECTS THE EARTH

          H2 HAS BEEN RESET TO 0.0 AND LEN TO 0



 SLANT PATH PARAMETERS IN STANDARD FORM

          H1      =     70.000 KM
          H2      =      0.000 KM
          ANGLE   =    180.000 DEG
          PHI     =      0.000 DEG
          HMIN    =      0.000 KM
          LEN     =          0
1CALCULATION OF THE REFRACTED PATH THROUGH THE ATMOSPHERE


  I       ALTITUDE        THETA  DRANGE    RANGE    DBETA     BETA     PHI     DBEND  BENDING    PBAR    TBAR   RHOBAR
      FROM       TO
      (KM)      (KM)      (DEG)    (KM)     (KM)    (DEG)    (DEG)    (DEG)    (DEG)    (DEG)    (MB)    (K)  (GM CM-3)

          H2 TO H1

  1    0.000    1.000    0.000    1.000    1.000    0.000    0.000  180.000    0.000    0.000  955.683  284.99 1.17E-03
  2    1.000    2.000    0.000    1.000    2.000    0.000    0.000  180.000    0.000    0.000  846.698  278.49 1.06E-03
  3    2.000    3.000    0.000    1.000    3.000    0.000    0.000  180.000    0.000    0.000  747.913  271.99 9.57E-04
  4    3.000    4.000    0.000    1.000    4.000    0.000    0.000  180.000    0.000    0.000  658.727  265.49 8.63E-04
  5    4.000    5.000    0.000    1.000    5.000    0.000    0.000  180.000    0.000    0.000  578.391  258.99 7.77E-04
  6    5.000    6.000    0.000    1.000    6.000    0.000    0.000  180.000    0.000    0.000  506.204  252.50 6.98E-04
  7    6.000    7.000    0.000    1.000    7.000    0.000    0.000  180.000    0.000    0.000  441.515  246.00 6.24E-04
  8    7.000    8.000    0.000    1.000    8.000    0.000    0.000  180.000    0.000    0.000  383.677  239.50 5.57E-04
  9    8.000    9.000    0.000    1.000    9.000    0.000    0.000  180.000    0.000    0.000  332.137  233.00 4.96E-04
 10    9.000   10.000    0.000    1.000   10.000    0.000    0.000  180.000    0.000    0.000  286.399  226.55 4.40E-04
 11   10.000   11.000    0.000    1.000   11.000    0.000    0.000  180.000    0.000    0.000  245.907  220.10 3.89E-04
 12   11.000   12.000    0.000    1.000   12.000    0.000    0.000  180.000    0.000    0.000  210.499  216.75 3.38E-04
 13   12.000   13.000    0.000    1.000   13.000    0.000    0.000  180.000    0.000    0.000  179.900  216.70 2.89E-04
 14   13.000   14.000    0.000    1.000   14.000    0.000    0.000  180.000    0.000    0.000  153.750  216.70 2.47E-04
 15   14.000   15.000    0.000    1.000   15.000    0.000    0.000  180.000    0.000    0.000  131.400  216.70 2.11E-04
 16   15.000   16.000    0.000    1.000   16.000    0.000    0.000  180.000    0.000    0.000  112.300  216.70 1.80E-04
 17   16.000   17.000    0.000    1.000   17.000    0.000    0.000  180.000    0.000    0.000   96.000  216.70 1.54E-04
 18   17.000   18.000    0.000    1.000   18.000    0.000    0.000  180.000    0.000    0.000   82.075  216.70 1.32E-04
 19   18.000   19.000    0.000    1.000   19.000    0.000    0.000  180.000    0.000    0.000   70.160  216.70 1.13E-04
 20   19.000   20.000    0.000    1.000   20.000    0.000    0.000  180.000    0.000    0.000   59.980  216.70 9.62E-05
 21   20.000   21.000    0.000    1.000   21.000    0.000    0.000  180.000    0.000    0.000   51.293  217.14 8.21E-05
 22   21.000   22.000    0.000    1.000   22.000    0.000    0.000  180.000    0.000    0.000   43.883  218.09 7.00E-05
 23   22.000   23.000    0.000    1.000   23.000    0.000    0.000  180.000    0.000    0.000   37.572  219.09 5.96E-05
 24   23.000   24.000    0.000    1.000   24.000    0.000    0.000  180.000    0.000    0.000   32.197  220.09 5.09E-05
 25   24.000   25.000    0.000    1.000   25.000    0.000    0.000  180.000    0.000    0.000   27.607  221.09 4.34E-05
 26   25.000   30.000    0.000    5.000   30.000    0.000    0.000  180.000    0.000    0.000   18.754  223.73 2.79E-05
 27   30.000   35.000    0.000    5.000   35.000    0.000    0.000  180.000    0.000    0.000    8.880  230.82 1.28E-05
 28   35.000   40.000    0.000    5.000   40.000    0.000    0.000  180.000    0.000    0.000    4.322  242.52 5.95E-06
 29   40.000   45.000    0.000    5.000   45.000    0.000    0.000  180.000    0.000    0.000    2.187  256.43 2.86E-06
 30   45.000   50.000    0.000    5.000   50.000    0.000    0.000  180.000    0.000    0.000    1.146  267.09 1.45E-06
 31   50.000   70.000    0.000   20.000   70.000    0.000    0.000  180.000    0.000    0.000    0.414  254.07 3.75E-07




1CUMULATIVE ABSORBER AMOUNTS FOR THE PATH FROM H1 TO Z

  J     Z        TBAR     HNO3        O3 UV      CNTMSLF1   CNTMSLF2    CNTMFRN      O2
       (KM)       (K)   (ATM CM)    (ATM CM)    (MOL CM-2)  (MOL CM-2)  (MOL CM-2)(MOL CM-2)

  1   50.000   254.07   0.000E+00   1.006E-03   1.712E+08   1.993E+08   3.515E+13   1.212E+02
  2   45.000   267.09   0.000E+00   3.353E-03   6.852E+08   6.122E+08   1.336E+14   2.382E+02
  3   40.000   256.43   0.000E+00   1.037E-02   2.617E+09   2.735E+09   5.125E+14   4.699E+02
  4   35.000   242.52   0.000E+00   2.785E-02   1.051E+10   1.447E+10   2.110E+15   9.529E+02
  5   30.000   230.82   0.000E+00   6.296E-02   4.487E+10   7.666E+10   9.286E+15   1.997E+03
  6   25.000   223.73   0.000E+00   1.245E-01   1.908E+11   3.695E+11   4.146E+16   4.291E+03
  7   24.000   221.09   0.000E+00   1.408E-01   2.532E+11   4.995E+11   5.580E+16   5.013E+03
  8   23.000   220.09   0.000E+00   1.581E-01   3.346E+11   6.712E+11   7.498E+16   5.862E+03
  9   22.000   219.09   0.000E+00   1.760E-01   4.403E+11   8.970E+11   1.006E+17   6.862E+03
 10   21.000   218.09   0.000E+00   1.940E-01   5.781E+11   1.195E+12   1.349E+17   8.044E+03
 11   20.000   217.14   0.000E+00   2.117E-01   7.603E+11   1.594E+12   1.813E+17   9.442E+03
 12   19.000   216.70   0.000E+00   2.287E-01   1.003E+12   2.128E+12   2.439E+17   1.109E+04
 13   18.000   216.70   0.000E+00   2.444E-01   1.328E+12   2.845E+12   3.287E+17   1.304E+04
 14   17.000   216.70   0.000E+00   2.584E-01   1.773E+12   3.826E+12   4.449E+17   1.535E+04
 15   16.000   216.70   0.000E+00   2.705E-01   2.404E+12   5.214E+12   6.065E+17   1.809E+04
 16   15.000   216.70   0.000E+00   2.810E-01   3.546E+12   7.731E+12   8.604E+17   2.134E+04
 17   14.000   216.70   0.000E+00   2.903E-01   5.875E+12   1.286E+13   1.285E+18   2.521E+04
 18   13.000   216.70   0.000E+00   2.987E-01   1.335E+13   2.932E+13   2.163E+18   2.983E+04
 19   12.000   216.70   0.000E+00   3.064E-01   4.593E+13   1.011E+14   4.313E+18   3.536E+04
 20   11.000   216.75   0.000E+00   3.132E-01   1.972E+14   4.340E+14   9.713E+18   4.201E+04
 21   10.000   220.10   0.000E+00   3.183E-01   9.311E+14   1.981E+15   2.338E+19   4.986E+04
 22    9.000   226.55   0.000E+00   3.220E-01   5.225E+15   1.027E+16   6.046E+19   5.898E+04
 23    8.000   233.00   0.000E+00   3.249E-01   3.402E+16   6.066E+16   1.686E+20   6.955E+04
 24    7.000   239.50   0.000E+00   3.273E-01   1.533E+17   2.479E+17   4.207E+20   8.179E+04
 25    6.000   246.00   0.000E+00   3.295E-01   5.336E+17   7.762E+17   9.243E+20   9.594E+04
 26    5.000   252.50   0.000E+00   3.316E-01   1.678E+18   2.159E+18   1.902E+21   1.123E+05
 27    4.000   258.99   0.000E+00   3.337E-01   5.000E+18   5.574E+18   3.756E+21   1.311E+05
 28    3.000   265.49   0.000E+00   3.360E-01   1.427E+19   1.343E+19   7.197E+21   1.528E+05
 29    2.000   271.99   0.000E+00   3.384E-01   3.863E+19   2.968E+19   1.338E+22   1.778E+05
 30    1.000   278.49   0.000E+00   3.409E-01   9.463E+19   5.691E+19   2.375E+22   2.065E+05
 31    0.000   284.99   0.000E+00   3.434E-01   2.082E+20   9.164E+19   4.002E+22   2.396E+05



1 J     Z       N2 CONT    MOL SCAT       AER 1       AER 2       AER 3       AER 4       CIRRUS
       (KM)

  1   50.000   2.287E-06   5.803E-03   0.000E+00   0.000E+00   0.000E+00   0.000E+00   0.000E+00
  2   45.000   8.234E-06   1.140E-02   0.000E+00   0.000E+00   0.000E+00   0.000E+00   0.000E+00
  3   40.000   3.167E-05   2.247E-02   0.000E+00   0.000E+00   0.000E+00   0.000E+00   0.000E+00
  4   35.000   1.336E-04   4.550E-02   0.000E+00   0.000E+00   0.000E+00   0.000E+00   0.000E+00
  5   30.000   6.063E-04   9.502E-02   0.000E+00   0.000E+00   0.000E+00   0.000E+00   0.000E+00
  6   25.000   2.845E-03   2.028E-01   0.000E+00   0.000E+00   0.000E+00   0.000E+00   0.000E+00
  7   24.000   3.883E-03   2.364E-01   0.000E+00   0.000E+00   0.000E+00   0.000E+00   0.000E+00
  8   23.000   5.308E-03   2.757E-01   0.000E+00   0.000E+00   0.000E+00   0.000E+00   0.000E+00
  9   22.000   7.266E-03   3.219E-01   0.000E+00   0.000E+00   0.000E+00   0.000E+00   0.000E+00
 10   21.000   9.962E-03   3.760E-01   0.000E+00   0.000E+00   0.000E+00   0.000E+00   0.000E+00
 11   20.000   1.368E-02   4.395E-01   0.000E+00   0.000E+00   0.000E+00   0.000E+00   0.000E+00
 12   19.000   1.878E-02   5.140E-01   0.000E+00   0.000E+00   0.000E+00   0.000E+00   0.000E+00
 13   18.000   2.576E-02   6.011E-01   0.000E+00   0.000E+00   0.000E+00   0.000E+00   0.000E+00
 14   17.000   3.531E-02   7.030E-01   0.000E+00   0.000E+00   0.000E+00   0.000E+00   0.000E+00
 15   16.000   4.838E-02   8.222E-01   0.000E+00   0.000E+00   0.000E+00   0.000E+00   0.000E+00
 16   15.000   6.626E-02   9.616E-01   0.000E+00   0.000E+00   0.000E+00   0.000E+00   0.000E+00
 17   14.000   9.074E-02   1.125E+00   0.000E+00   0.000E+00   0.000E+00   0.000E+00   0.000E+00
 18   13.000   1.243E-01   1.316E+00   0.000E+00   0.000E+00   0.000E+00   0.000E+00   0.000E+00
 19   12.000   1.701E-01   1.539E+00   0.000E+00   0.000E+00   0.000E+00   0.000E+00   0.000E+00
 20   11.000   2.329E-01   1.800E+00   0.000E+00   0.000E+00   0.000E+00   0.000E+00   0.000E+00
 21   10.000   3.161E-01   2.101E+00   0.000E+00   0.000E+00   0.000E+00   0.000E+00   0.000E+00
 22    9.000   4.225E-01   2.441E+00   0.000E+00   0.000E+00   0.000E+00   0.000E+00   0.000E+00
 23    8.000   5.578E-01   2.825E+00   0.000E+00   0.000E+00   0.000E+00   0.000E+00   0.000E+00
 24    7.000   7.288E-01   3.256E+00   0.000E+00   0.000E+00   0.000E+00   0.000E+00   0.000E+00
 25    6.000   9.434E-01   3.739E+00   0.000E+00   0.000E+00   0.000E+00   0.000E+00   0.000E+00
 26    5.000   1.211E+00   4.279E+00   0.000E+00   0.000E+00   0.000E+00   0.000E+00   0.000E+00
 27    4.000   1.543E+00   4.881E+00   0.000E+00   0.000E+00   0.000E+00   0.000E+00   0.000E+00
 28    3.000   1.954E+00   5.549E+00   0.000E+00   0.000E+00   0.000E+00   0.000E+00   0.000E+00
 29    2.000   2.457E+00   6.289E+00   0.000E+00   0.000E+00   0.000E+00   0.000E+00   0.000E+00
 30    1.000   3.073E+00   7.108E+00   0.000E+00   0.000E+00   0.000E+00   0.000E+00   0.000E+00
 31    0.000   3.823E+00   8.011E+00   0.000E+00   0.000E+00   0.000E+00   0.000E+00   0.000E+00



1  J    Z       H2O       O3        CO2       CO        CH4       N2O       O2        NH3       NO        NO2       SO2
      (KM)    (                                                      ATM CM                                             )

   1   50.00  2.69E-03  1.01E-03  4.64E-01  0.00E+00  1.10E-04  0.00E+00  1.21E+02  0.00E+00  0.00E+00  0.00E+00  0.00E+00
   2   45.00  5.61E-03  3.35E-03  9.11E-01  0.00E+00  2.71E-04  0.00E+00  2.38E+02  0.00E+00  0.00E+00  0.00E+00  0.00E+00
   3   40.00  1.13E-02  1.04E-02  1.80E+00  0.00E+00  7.89E-04  0.00E+00  4.69E+02  0.00E+00  0.00E+00  0.00E+00  0.00E+00
   4   35.00  2.27E-02  2.79E-02  3.64E+00  0.00E+00  2.31E-03  0.00E+00  9.50E+02  0.00E+00  0.00E+00  0.00E+00  0.00E+00
   5   30.00  4.64E-02  6.30E-02  7.60E+00  0.00E+00  6.46E-03  0.00E+00  1.98E+03  0.00E+00  0.00E+00  0.00E+00  0.00E+00
   6   25.00  9.55E-02  1.24E-01  1.62E+01  0.00E+00  1.71E-02  0.00E+00  4.24E+03  0.00E+00  0.00E+00  0.00E+00  0.00E+00
   7   24.00  1.10E-01  1.41E-01  1.89E+01  0.00E+00  2.08E-02  0.00E+00  4.94E+03  0.00E+00  0.00E+00  0.00E+00  0.00E+00
   8   23.00  1.27E-01  1.58E-01  2.20E+01  0.00E+00  2.53E-02  0.00E+00  5.76E+03  0.00E+00  0.00E+00  0.00E+00  0.00E+00
   9   22.00  1.46E-01  1.76E-01  2.57E+01  0.00E+00  3.10E-02  0.00E+00  6.72E+03  0.00E+00  0.00E+00  0.00E+00  0.00E+00
  10   21.00  1.68E-01  1.94E-01  3.01E+01  0.00E+00  3.81E-02  0.00E+00  7.85E+03  0.00E+00  0.00E+00  0.00E+00  0.00E+00
  11   20.00  1.93E-01  2.12E-01  3.51E+01  0.00E+00  4.69E-02  0.00E+00  9.18E+03  0.00E+00  0.00E+00  0.00E+00  0.00E+00
  12   19.00  2.21E-01  2.29E-01  4.11E+01  0.00E+00  5.78E-02  0.00E+00  1.07E+04  0.00E+00  0.00E+00  0.00E+00  0.00E+00
  13   18.00  2.55E-01  2.44E-01  4.81E+01  0.00E+00  7.08E-02  0.00E+00  1.26E+04  0.00E+00  0.00E+00  0.00E+00  0.00E+00
  14   17.00  2.94E-01  2.58E-01  5.62E+01  0.00E+00  8.65E-02  0.00E+00  1.47E+04  0.00E+00  0.00E+00  0.00E+00  0.00E+00
  15   16.00  3.40E-01  2.70E-01  6.57E+01  0.00E+00  1.05E-01  0.00E+00  1.72E+04  0.00E+00  0.00E+00  0.00E+00  0.00E+00
  16   15.00  4.03E-01  2.81E-01  7.69E+01  0.00E+00  1.27E-01  0.00E+00  2.01E+04  0.00E+00  0.00E+00  0.00E+00  0.00E+00
  17   14.00  4.92E-01  2.90E-01  8.99E+01  0.00E+00  1.54E-01  0.00E+00  2.35E+04  0.00E+00  0.00E+00  0.00E+00  0.00E+00
  18   13.00  6.48E-01  2.99E-01  1.05E+02  0.00E+00  1.85E-01  0.00E+00  2.75E+04  0.00E+00  0.00E+00  0.00E+00  0.00E+00
  19   12.00  9.76E-01  3.06E-01  1.23E+02  0.00E+00  2.22E-01  0.00E+00  3.21E+04  0.00E+00  0.00E+00  0.00E+00  0.00E+00
  20   11.00  1.68E+00  3.13E-01  1.44E+02  0.00E+00  2.65E-01  0.00E+00  3.76E+04  0.00E+00  0.00E+00  0.00E+00  0.00E+00
  21   10.00  3.23E+00  3.18E-01  1.68E+02  0.00E+00  3.16E-01  0.00E+00  4.39E+04  0.00E+00  0.00E+00  0.00E+00  0.00E+00
  22    9.00  6.94E+00  3.22E-01  1.95E+02  0.00E+00  3.73E-01  0.00E+00  5.10E+04  0.00E+00  0.00E+00  0.00E+00  0.00E+00
  23    8.00  1.65E+01  3.25E-01  2.26E+02  0.00E+00  4.38E-01  0.00E+00  5.90E+04  0.00E+00  0.00E+00  0.00E+00  0.00E+00
  24    7.00  3.65E+01  3.27E-01  2.60E+02  0.00E+00  5.11E-01  0.00E+00  6.80E+04  0.00E+00  0.00E+00  0.00E+00  0.00E+00
  25    6.00  7.21E+01  3.29E-01  2.99E+02  0.00E+00  5.94E-01  0.00E+00  7.81E+04  0.00E+00  0.00E+00  0.00E+00  0.00E+00
  26    5.00  1.34E+02  3.32E-01  3.42E+02  0.00E+00  6.85E-01  0.00E+00  8.94E+04  0.00E+00  0.00E+00  0.00E+00  0.00E+00
  27    4.00  2.40E+02  3.34E-01  3.90E+02  0.00E+00  7.87E-01  0.00E+00  1.02E+05  0.00E+00  0.00E+00  0.00E+00  0.00E+00
  28    3.00  4.16E+02  3.36E-01  4.44E+02  0.00E+00  9.01E-01  0.00E+00  1.16E+05  0.00E+00  0.00E+00  0.00E+00  0.00E+00
  29    2.00  7.03E+02  3.38E-01  5.03E+02  0.00E+00  1.03E+00  0.00E+00  1.31E+05  0.00E+00  0.00E+00  0.00E+00  0.00E+00
  30    1.00  1.14E+03  3.41E-01  5.68E+02  0.00E+00  1.17E+00  0.00E+00  1.48E+05  0.00E+00  0.00E+00  0.00E+00  0.00E+00
  31    0.00  1.76E+03  3.43E-01  6.40E+02  0.00E+00  1.32E+00  0.00E+00  1.67E+05  0.00E+00  0.00E+00  0.00E+00  0.00E+00



1  J    Z      CFC-11    CFC-12    CFC-13    CFC-14    CFC-22    CFC-113   CFC-114   CFC-115   CLONO2     HNO4     CHCL2F 
                CCL4      N2O5  
      (KM)    (                                                   ATM CM                                                )

   1   50.00  7.97E-16  2.41E-10  5.80E-16  5.80E-16  4.79E-09  2.40E-12  5.83E-10  5.80E-16  4.66E-12  1.18E-11  5.80E-16
              1.06E-18  5.44E-15
   2   45.00  2.07E-14  1.06E-09  1.14E-15  1.14E-15  1.02E-08  1.36E-11  1.39E-09  1.14E-15  3.02E-10  2.17E-10  1.14E-15
              9.26E-17  6.26E-13
   3   40.00  7.72E-13  5.49E-09  2.25E-15  2.25E-15  2.37E-08  9.43E-11  3.59E-09  2.25E-15  1.67E-08  4.90E-09  2.25E-15
              1.23E-14  7.00E-11
   4   35.00  1.20E-10  3.56E-08  4.55E-15  4.55E-15  6.40E-08  9.52E-10  1.05E-08  4.55E-15  5.23E-07  1.40E-07  4.55E-15
              1.69E-11  7.57E-09
   5   30.00  7.34E-09  2.30E-07  9.50E-15  9.50E-15  1.92E-07  9.39E-09  3.38E-08  9.50E-15  4.64E-06  1.70E-06  9.50E-15
              2.72E-09  1.56E-07
   6   25.00  1.52E-07  1.19E-06  2.03E-14  2.03E-14  5.79E-07  6.53E-08  1.08E-07  2.03E-14  1.59E-05  7.61E-06  2.03E-14
              9.14E-08  8.77E-07
   7   24.00  2.55E-07  1.61E-06  2.36E-14  2.36E-14  7.20E-07  9.27E-08  1.35E-07  2.36E-14  1.90E-05  9.51E-06  2.36E-14
              1.63E-07  1.13E-06
   8   23.00  4.11E-07  2.16E-06  2.76E-14  2.76E-14  8.93E-07  1.29E-07  1.69E-07  2.76E-14  2.21E-05  1.15E-05  2.76E-14
              2.79E-07  1.41E-06
   9   22.00  6.47E-07  2.86E-06  3.22E-14  3.22E-14  1.10E-06  1.78E-07  2.11E-07  3.22E-14  2.52E-05  1.36E-05  3.22E-14
              4.65E-07  1.68E-06
  10   21.00  9.87E-07  3.75E-06  3.76E-14  3.76E-14  1.36E-06  2.42E-07  2.63E-07  3.76E-14  2.81E-05  1.57E-05  3.76E-14
              7.44E-07  1.93E-06
  11   20.00  1.46E-06  4.87E-06  4.39E-14  4.39E-14  1.68E-06  3.24E-07  3.26E-07  4.39E-14  3.05E-05  1.77E-05  4.39E-14
              1.14E-06  2.16E-06
  12   19.00  2.10E-06  6.28E-06  5.14E-14  5.14E-14  2.07E-06  4.29E-07  4.03E-07  5.14E-14  3.26E-05  1.96E-05  5.14E-14
              1.69E-06  2.35E-06
  13   18.00  2.94E-06  8.02E-06  6.01E-14  6.01E-14  2.53E-06  5.60E-07  4.96E-07  6.01E-14  3.44E-05  2.15E-05  6.01E-14
              2.43E-06  2.52E-06
  14   17.00  4.02E-06  1.02E-05  7.03E-14  7.03E-14  3.09E-06  7.24E-07  6.09E-07  7.03E-14  3.58E-05  2.32E-05  7.03E-14
              3.41E-06  2.64E-06
  15   16.00  5.43E-06  1.28E-05  8.22E-14  8.22E-14  3.76E-06  9.26E-07  7.44E-07  8.22E-14  3.65E-05  2.46E-05  8.22E-14
              4.69E-06  2.70E-06
  16   15.00  7.17E-06  1.59E-05  9.61E-14  9.61E-14  4.56E-06  1.17E-06  9.05E-07  9.61E-14  3.69E-05  2.58E-05  9.61E-14
              6.29E-06  2.72E-06
  17   14.00  9.27E-06  1.97E-05  1.12E-13  1.12E-13  5.51E-06  1.47E-06  1.10E-06  1.12E-13  3.72E-05  2.70E-05  1.12E-13
              8.23E-06  2.74E-06
  18   13.00  1.18E-05  2.41E-05  1.31E-13  1.31E-13  6.63E-06  1.82E-06  1.32E-06  1.31E-13  3.74E-05  2.82E-05  1.31E-13
              1.06E-05  2.75E-06
  19   12.00  1.49E-05  2.94E-05  1.54E-13  1.54E-13  7.95E-06  2.24E-06  1.59E-06  1.54E-13  3.75E-05  2.93E-05  1.54E-13
              1.34E-05  2.75E-06
  20   11.00  1.85E-05  3.57E-05  1.80E-13  1.80E-13  9.50E-06  2.73E-06  1.90E-06  1.80E-13  3.75E-05  3.05E-05  1.80E-13
              1.68E-05  2.75E-06
  21   10.00  2.27E-05  4.29E-05  2.10E-13  2.10E-13  1.13E-05  3.30E-06  2.26E-06  2.10E-13  3.76E-05  3.19E-05  2.10E-13
              2.07E-05  2.76E-06
  22    9.00  2.74E-05  5.10E-05  2.44E-13  2.44E-13  1.33E-05  3.94E-06  2.67E-06  2.44E-13  3.76E-05  3.35E-05  2.44E-13
              2.50E-05  2.76E-06
  23    8.00  3.28E-05  6.02E-05  2.82E-13  2.82E-13  1.56E-05  4.67E-06  3.13E-06  2.82E-13  3.76E-05  3.54E-05  2.82E-13
              3.00E-05  2.76E-06
  24    7.00  3.88E-05  7.06E-05  3.25E-13  3.25E-13  1.82E-05  5.49E-06  3.65E-06  3.25E-13  3.77E-05  3.74E-05  3.25E-13
              3.56E-05  2.76E-06
  25    6.00  4.56E-05  8.22E-05  3.74E-13  3.74E-13  2.11E-05  6.41E-06  4.23E-06  3.74E-13  3.78E-05  3.90E-05  3.74E-13
              4.18E-05  2.76E-06
  26    5.00  5.32E-05  9.51E-05  4.28E-13  4.28E-13  2.43E-05  7.43E-06  4.87E-06  4.28E-13  3.79E-05  4.03E-05  4.28E-13
              4.88E-05  2.76E-06
  27    4.00  6.16E-05  1.10E-04  4.88E-13  4.88E-13  2.79E-05  8.57E-06  5.59E-06  4.88E-13  3.81E-05  4.11E-05  4.88E-13
              5.66E-05  2.76E-06
  28    3.00  7.09E-05  1.26E-04  5.54E-13  5.54E-13  3.19E-05  9.84E-06  6.40E-06  5.54E-13  3.84E-05  4.15E-05  5.54E-13
              6.53E-05  2.76E-06
  29    2.00  8.13E-05  1.43E-04  6.28E-13  6.28E-13  3.63E-05  1.12E-05  7.28E-06  6.28E-13  3.87E-05  4.18E-05  6.28E-13
              7.49E-05  2.76E-06
  30    1.00  9.27E-05  1.63E-04  7.10E-13  7.10E-13  4.12E-05  1.28E-05  8.27E-06  7.10E-13  3.91E-05  4.21E-05  7.10E-13
              8.55E-05  2.76E-06
  31    0.00  1.05E-04  1.85E-04  8.01E-13  8.01E-13  4.66E-05  1.45E-05  9.35E-06  8.01E-13  3.96E-05  4.22E-05  8.01E-13
              9.73E-05  2.76E-06


0SUMMARY OF THE GEOMETRY CALCULATION

          H1      =     70.000 KM
          H2      =      0.000 KM
          ANGLE   =    180.000 DEG
          RANGE   =     70.000 KM
          BETA    =      0.000 DEG
          PHI     =      0.000 DEG
          HMIN    =      0.000 KM
          BENDING =      0.000 DEG
          LEN     =          0




1EQUIVALENT SEA LEVEL TOTAL ABSORBER AMOUNTS

                 HNO3      O3 UV       CNTMSLF1    CNTMSLF2   CNTMFRN
               (ATM CM)   (ATM CM)     (MOL CM-2)  (MOL CM-2)  (MOL CM-2)  (MOL CM-2)

             0.000E+00   3.434E-01   2.082E+20   9.164E+19   4.002E+22


              N2 CONT    MOL SCAT       AER 1       AER 2       AER 3       AER 4     CIRRUS      MEAN RH
                                                                                                  (PRCNT)

             3.823E+00   8.011E+00   0.000E+00   0.000E+00   0.000E+00   0.000E+00   0.000E+00        0.00


                 H2O        O3          CO2         CO          CH4         N2O          O2
               (                                        ATM CM                            )

             1.761E+03   3.434E-01   6.405E+02   0.000E+00   1.319E+00   0.000E+00   1.673E+05

                 NH3        NO          NO2         SO2
                 (               ATM CM               )

             0.000E+00   0.000E+00   0.000E+00   0.000E+00

             CFC-11      CFC-12      CFC-13      CFC-14      CFC-22      CFC-113     CFC-114
                 (                                      ATM CM                            )

             1.054E-04   1.846E-04   8.006E-13   8.006E-13   4.663E-05   1.452E-05   9.349E-06

             CFC-115     CLONO2       HNO4       CHCL2F       CCL4        N2O5  
                 (                                      ATM CM                            )

             8.006E-13   3.955E-05   4.217E-05   8.006E-13   9.728E-05   2.757E-06
  iv           -5
  iv            0
1                                             RADIANCE(WATTS/CM2-STER-XXX)
0  FREQ   WAVLEN    PATH THERMAL      SURFACE EMISSION    SURFACE REFLECTED     TOTAL RADIANCE   INTEGRAL    TOTAL
  (CM-1) (MICRN)    (CM-1)   (MICRN)    (CM-1)   (MICRN)    (CM-1)   (MICRN)    (CM-1)   (MICRN)    (CM-1)   TRANS

      2. 4999.998  6.86E-10  2.74E-13  4.77E-10  1.91E-13  0.00E+00  0.00E+00  1.16E-09  4.65E-13  1.16E-09  0.39896
      4. 2500.000  2.35E-09  3.76E-12  1.50E-09  2.40E-12  0.00E+00  0.00E+00  3.85E-09  6.16E-12  8.87E-09  0.38312
      6. 1666.666  6.20E-09  2.23E-11  2.06E-09  7.40E-12  0.00E+00  0.00E+00  8.26E-09  2.97E-11  2.54E-08  0.26951
      8. 1250.000  1.19E-08  7.64E-11  2.44E-09  1.56E-11  0.00E+00  0.00E+00  1.44E-08  9.20E-11  5.41E-08  0.17285
     10. 1000.000  2.02E-08  2.02E-10  1.42E-09  1.42E-11  0.00E+00  0.00E+00  2.17E-08  2.17E-10  9.75E-08  0.07579
     12.  833.333  2.94E-08  4.24E-10  2.15E-10  3.10E-12  0.00E+00  0.00E+00  2.96E-08  4.27E-10  1.57E-07  0.00884
     14.  714.286  3.88E-08  7.61E-10  4.31E-12  8.46E-14  0.00E+00  0.00E+00  3.88E-08  7.61E-10  2.34E-07  0.00012
     16.  625.000  4.93E-08  1.26E-09  1.23E-13  3.14E-15  0.00E+00  0.00E+00  4.93E-08  1.26E-09  3.33E-07  0.00000
     18.  555.555  5.94E-08  1.92E-09  2.47E-14  8.00E-16  0.00E+00  0.00E+00  5.94E-08  1.92E-09  4.52E-07  0.00000
     20.  500.000  7.40E-08  2.96E-09  2.46E-14  9.86E-16  0.00E+00  0.00E+00  7.40E-08  2.96E-09  6.00E-07  0.00000
     22.  454.545  9.21E-08  4.46E-09  2.49E-17  1.20E-18  0.00E+00  0.00E+00  9.21E-08  4.46E-09  7.84E-07  0.00000
     24.  416.667  1.05E-07  6.07E-09  1.91E-17  1.10E-18  0.00E+00  0.00E+00  1.05E-07  6.07E-09  9.95E-07  0.00000
     26.  384.615  1.22E-07  8.22E-09  9.65E-18  6.52E-19  0.00E+00  0.00E+00  1.22E-07  8.22E-09  1.24E-06  0.00000
     28.  357.143  1.45E-07  1.14E-08  4.22E-19  3.31E-20  0.00E+00  0.00E+00  1.45E-07  1.14E-08  1.53E-06  0.00000
     30.  333.333  1.64E-07  1.48E-08  2.41E-19  2.17E-20  0.00E+00  0.00E+00  1.64E-07  1.48E-08  1.86E-06  0.00000
     32.  312.500  1.79E-07  1.83E-08  3.41E-25  3.50E-26  0.00E+00  0.00E+00  1.79E-07  1.83E-08  2.21E-06  0.00000
     34.  294.118  1.98E-07  2.29E-08  5.01E-34  5.79E-35  0.00E+00  0.00E+00  1.98E-07  2.29E-08  2.61E-06  0.00000
     36.  277.778  2.15E-07  2.79E-08  0.00E+00  0.00E+00  0.00E+00  0.00E+00  2.15E-07  2.79E-08  3.04E-06  0.00000
     38.  263.158  2.32E-07  3.36E-08  0.00E+00  0.00E+00  0.00E+00  0.00E+00  2.32E-07  3.36E-08  3.51E-06  0.00000
     40.  250.000  2.59E-07  4.14E-08  0.00E+00  0.00E+00  0.00E+00  0.00E+00  2.59E-07  4.14E-08  4.02E-06  0.00000
     42.  238.095  2.94E-07  5.19E-08  0.00E+00  0.00E+00  0.00E+00  0.00E+00  2.94E-07  5.19E-08  4.61E-06  0.00000
     44.  227.273  3.27E-07  6.33E-08  0.00E+00  0.00E+00  0.00E+00  0.00E+00  3.27E-07  6.33E-08  5.27E-06  0.00000
     46.  217.391  3.49E-07  7.38E-08  3.93E-40  8.32E-41  0.00E+00  0.00E+00  3.49E-07  7.38E-08  5.96E-06  0.00000
     48.  208.333  3.74E-07  8.61E-08  3.93E-40  9.06E-41  0.00E+00  0.00E+00  3.74E-07  8.61E-08  6.71E-06  0.00000
     50.  200.000  4.11E-07  1.03E-07  0.00E+00  0.00E+00  0.00E+00  0.00E+00  4.11E-07  1.03E-07  7.53E-06  0.00000
     52.  192.308  4.33E-07  1.17E-07  0.00E+00  0.00E+00  0.00E+00  0.00E+00  4.33E-07  1.17E-07  8.40E-06  0.00000
     54.  185.185  4.49E-07  1.31E-07  0.00E+00  0.00E+00  0.00E+00  0.00E+00  4.49E-07  1.31E-07  9.29E-06  0.00000
     56.  178.571  4.72E-07  1.48E-07  0.00E+00  0.00E+00  0.00E+00  0.00E+00  4.72E-07  1.48E-07  1.02E-05  0.00000
     58.  172.414  5.05E-07  1.70E-07  0.00E+00  0.00E+00  0.00E+00  0.00E+00  5.05E-07  1.70E-07  1.12E-05  0.00000
     60.  166.667  5.45E-07  1.96E-07  0.00E+00  0.00E+00  0.00E+00  0.00E+00  5.45E-07  1.96E-07  1.23E-05  0.00000
     62.  161.290  5.80E-07  2.23E-07  0.00E+00  0.00E+00  0.00E+00  0.00E+00  5.80E-07  2.23E-07  1.35E-05  0.00000
     64.  156.250  6.14E-07  2.52E-07  0.00E+00  0.00E+00  0.00E+00  0.00E+00  6.14E-07  2.52E-07  1.47E-05  0.00000
     66.  151.515  6.61E-07  2.88E-07  0.00E+00  0.00E+00  0.00E+00  0.00E+00  6.61E-07  2.88E-07  1.60E-05  0.00000
     68.  147.059  6.89E-07  3.19E-07  0.00E+00  0.00E+00  0.00E+00  0.00E+00  6.89E-07  3.19E-07  1.74E-05  0.00000
     70.  142.857  7.21E-07  3.53E-07  0.00E+00  0.00E+00  0.00E+00  0.00E+00  7.21E-07  3.53E-07  1.89E-05  0.00000
     72.  138.889  7.46E-07  3.87E-07  0.00E+00  0.00E+00  0.00E+00  0.00E+00  7.46E-07  3.87E-07  2.04E-05  0.00000
     74.  135.135  7.73E-07  4.24E-07  0.00E+00  0.00E+00  0.00E+00  0.00E+00  7.73E-07  4.24E-07  2.19E-05  0.00000
     76.  131.579  8.18E-07  4.73E-07  0.00E+00  0.00E+00  0.00E+00  0.00E+00  8.18E-07  4.73E-07  2.35E-05  0.00000
     78.  128.205  8.57E-07  5.21E-07  0.00E+00  0.00E+00  0.00E+00  0.00E+00  8.57E-07  5.21E-07  2.53E-05  0.00000
     80.  125.000  8.91E-07  5.70E-07  0.00E+00  0.00E+00  0.00E+00  0.00E+00  8.91E-07  5.70E-07  2.70E-05  0.00000
     82.  121.951  9.38E-07  6.31E-07  0.00E+00  0.00E+00  0.00E+00  0.00E+00  9.38E-07  6.31E-07  2.89E-05  0.00000
     84.  119.048  9.96E-07  7.03E-07  0.00E+00  0.00E+00  0.00E+00  0.00E+00  9.96E-07  7.03E-07  3.09E-05  0.00000
     86.  116.279  1.03E-06  7.60E-07  0.00E+00  0.00E+00  0.00E+00  0.00E+00  1.03E-06  7.60E-07  3.30E-05  0.00000
     88.  113.636  1.04E-06  8.08E-07  0.00E+00  0.00E+00  0.00E+00  0.00E+00  1.04E-06  8.08E-07  3.51E-05  0.00000
     90.  111.111  1.08E-06  8.77E-07  0.00E+00  0.00E+00  0.00E+00  0.00E+00  1.08E-06  8.77E-07  3.72E-05  0.00000
     92.  108.696  1.12E-06  9.50E-07  0.00E+00  0.00E+00  0.00E+00  0.00E+00  1.12E-06  9.50E-07  3.95E-05  0.00000
     94.  106.383  1.17E-06  1.04E-06  0.00E+00  0.00E+00  0.00E+00  0.00E+00  1.17E-06  1.04E-06  4.18E-05  0.00000
     96.  104.167  1.22E-06  1.12E-06  0.00E+00  0.00E+00  0.00E+00  0.00E+00  1.22E-06  1.12E-06  4.42E-05  0.00000
     98.  102.041  1.26E-06  1.21E-06  0.00E+00  0.00E+00  0.00E+00  0.00E+00  1.26E-06  1.21E-06  4.68E-05  0.00000
    100.  100.000  1.28E-06  1.28E-06  0.00E+00  0.00E+00  0.00E+00  0.00E+00  1.28E-06  1.28E-06  4.93E-05  0.00000
  iv          105
1                                             RADIANCE(WATTS/CM2-STER-XXX)
0  FREQ   WAVLEN    PATH THERMAL      SURFACE EMISSION    SURFACE REFLECTED     TOTAL RADIANCE   INTEGRAL    TOTAL
  (CM-1) (MICRN)    (CM-1)   (MICRN)    (CM-1)   (MICRN)    (CM-1)   (MICRN)    (CM-1)   (MICRN)    (CM-1)   TRANS

    102.   98.039  1.33E-06  1.39E-06  0.00E+00  0.00E+00  0.00E+00  0.00E+00  1.33E-06  1.39E-06  5.20E-05  0.00000
    104.   96.154  1.38E-06  1.49E-06  0.00E+00  0.00E+00  0.00E+00  0.00E+00  1.38E-06  1.49E-06  5.47E-05  0.00000
    106.   94.340  1.42E-06  1.60E-06  0.00E+00  0.00E+00  0.00E+00  0.00E+00  1.42E-06  1.60E-06  5.76E-05  0.00000
    108.   92.593  1.49E-06  1.74E-06  0.00E+00  0.00E+00  0.00E+00  0.00E+00  1.49E-06  1.74E-06  6.06E-05  0.00000
    110.   90.909  1.54E-06  1.86E-06  0.00E+00  0.00E+00  0.00E+00  0.00E+00  1.54E-06  1.86E-06  6.36E-05  0.00000
    112.   89.286  1.58E-06  1.98E-06  0.00E+00  0.00E+00  0.00E+00  0.00E+00  1.58E-06  1.98E-06  6.68E-05  0.00000
    114.   87.719  1.68E-06  2.19E-06  0.00E+00  0.00E+00  0.00E+00  0.00E+00  1.68E-06  2.19E-06  7.02E-05  0.00000
    116.   86.207  1.72E-06  2.31E-06  0.00E+00  0.00E+00  0.00E+00  0.00E+00  1.72E-06  2.31E-06  7.36E-05  0.00000
    118.   84.746  1.72E-06  2.40E-06  0.00E+00  0.00E+00  0.00E+00  0.00E+00  1.72E-06  2.40E-06  7.71E-05  0.00000
    120.   83.333  1.74E-06  2.50E-06  0.00E+00  0.00E+00  0.00E+00  0.00E+00  1.74E-06  2.50E-06  8.05E-05  0.00000
    122.   81.967  1.77E-06  2.63E-06  0.00E+00  0.00E+00  0.00E+00  0.00E+00  1.77E-06  2.63E-06  8.41E-05  0.00000
    124.   80.645  1.84E-06  2.83E-06  0.00E+00  0.00E+00  0.00E+00  0.00E+00  1.84E-06  2.83E-06  8.77E-05  0.00000
    126.   79.365  1.87E-06  2.96E-06  0.00E+00  0.00E+00  0.00E+00  0.00E+00  1.87E-06  2.96E-06  9.15E-05  0.00000
    128.   78.125  1.92E-06  3.15E-06  0.00E+00  0.00E+00  0.00E+00  0.00E+00  1.92E-06  3.15E-06  9.53E-05  0.00000
    130.   76.923  1.99E-06  3.36E-06  0.00E+00  0.00E+00  0.00E+00  0.00E+00  1.99E-06  3.36E-06  9.93E-05  0.00000
    132.   75.758  2.00E-06  3.49E-06  0.00E+00  0.00E+00  0.00E+00  0.00E+00  2.00E-06  3.49E-06  1.03E-04  0.00000
    134.   74.627  2.07E-06  3.72E-06  0.00E+00  0.00E+00  0.00E+00  0.00E+00  2.07E-06  3.72E-06  1.07E-04  0.00000
    136.   73.529  2.16E-06  3.99E-06  0.00E+00  0.00E+00  0.00E+00  0.00E+00  2.16E-06  3.99E-06  1.12E-04  0.00000
    138.   72.464  2.16E-06  4.11E-06  0.00E+00  0.00E+00  0.00E+00  0.00E+00  2.16E-06  4.11E-06  1.16E-04  0.00000
    140.   71.429  2.18E-06  4.27E-06  0.00E+00  0.00E+00  0.00E+00  0.00E+00  2.18E-06  4.27E-06  1.20E-04  0.00000
    142.   70.423  2.30E-06  4.63E-06  0.00E+00  0.00E+00  0.00E+00  0.00E+00  2.30E-06  4.63E-06  1.25E-04  0.00000
    144.   69.444  2.40E-06  4.98E-06  0.00E+00  0.00E+00  0.00E+00  0.00E+00  2.40E-06  4.98E-06  1.30E-04  0.00000
    146.   68.493  2.43E-06  5.17E-06  0.00E+00  0.00E+00  0.00E+00  0.00E+00  2.43E-06  5.17E-06  1.35E-04  0.00000
    148.   67.568  2.40E-06  5.25E-06  0.00E+00  0.00E+00  0.00E+00  0.00E+00  2.40E-06  5.25E-06  1.40E-04  0.00000
    150.   66.667  2.39E-06  5.39E-06  0.00E+00  0.00E+00  0.00E+00  0.00E+00  2.39E-06  5.39E-06  1.44E-04  0.00000
    152.   65.789  2.44E-06  5.64E-06  0.00E+00  0.00E+00  0.00E+00  0.00E+00  2.44E-06  5.64E-06  1.49E-04  0.00000
    154.   64.935  2.52E-06  5.97E-06  0.00E+00  0.00E+00  0.00E+00  0.00E+00  2.52E-06  5.97E-06  1.54E-04  0.00000
    156.   64.103  2.58E-06  6.29E-06  0.00E+00  0.00E+00  0.00E+00  0.00E+00  2.58E-06  6.29E-06  1.59E-04  0.00000
    158.   63.291  2.63E-06  6.58E-06  0.00E+00  0.00E+00  0.00E+00  0.00E+00  2.63E-06  6.58E-06  1.65E-04  0.00000
    160.   62.500  2.75E-06  7.05E-06  0.00E+00  0.00E+00  0.00E+00  0.00E+00  2.75E-06  7.05E-06  1.70E-04  0.00000
    162.   61.728  2.85E-06  7.49E-06  0.00E+00  0.00E+00  0.00E+00  0.00E+00  2.85E-06  7.49E-06  1.76E-04  0.00000
    164.   60.976  2.91E-06  7.83E-06  0.00E+00  0.00E+00  0.00E+00  0.00E+00  2.91E-06  7.83E-06  1.82E-04  0.00000
    166.   60.241  2.88E-06  7.92E-06  0.00E+00  0.00E+00  0.00E+00  0.00E+00  2.88E-06  7.92E-06  1.87E-04  0.00000
    168.   59.524  2.86E-06  8.08E-06  0.00E+00  0.00E+00  0.00E+00  0.00E+00  2.86E-06  8.08E-06  1.93E-04  0.00000
    170.   58.824  2.87E-06  8.30E-06  0.00E+00  0.00E+00  0.00E+00  0.00E+00  2.87E-06  8.30E-06  1.99E-04  0.00000
    172.   58.140  2.92E-06  8.63E-06  0.00E+00  0.00E+00  0.00E+00  0.00E+00  2.92E-06  8.63E-06  2.05E-04  0.00000
    174.   57.471  2.99E-06  9.04E-06  0.00E+00  0.00E+00  0.00E+00  0.00E+00  2.99E-06  9.04E-06  2.11E-04  0.00000
    176.   56.818  3.02E-06  9.36E-06  0.00E+00  0.00E+00  0.00E+00  0.00E+00  3.02E-06  9.36E-06  2.17E-04  0.00000
    178.   56.180  3.07E-06  9.73E-06  0.00E+00  0.00E+00  0.00E+00  0.00E+00  3.07E-06  9.73E-06  2.23E-04  0.00000
    180.   55.556  3.18E-06  1.03E-05  0.00E+00  0.00E+00  0.00E+00  0.00E+00  3.18E-06  1.03E-05  2.29E-04  0.00000
    182.   54.945  3.26E-06  1.08E-05  0.00E+00  0.00E+00  0.00E+00  0.00E+00  3.26E-06  1.08E-05  2.36E-04  0.00000
    184.   54.348  3.39E-06  1.15E-05  0.00E+00  0.00E+00  0.00E+00  0.00E+00  3.39E-06  1.15E-05  2.43E-04  0.00000
    186.   53.763  3.43E-06  1.19E-05  0.00E+00  0.00E+00  0.00E+00  0.00E+00  3.43E-06  1.19E-05  2.49E-04  0.00000
    188.   53.191  3.37E-06  1.19E-05  0.00E+00  0.00E+00  0.00E+00  0.00E+00  3.37E-06  1.19E-05  2.56E-04  0.00000
    190.   52.632  3.51E-06  1.27E-05  0.00E+00  0.00E+00  0.00E+00  0.00E+00  3.51E-06  1.27E-05  2.63E-04  0.00000
    192.   52.083  3.58E-06  1.32E-05  0.00E+00  0.00E+00  0.00E+00  0.00E+00  3.58E-06  1.32E-05  2.70E-04  0.00000
    194.   51.546  3.55E-06  1.33E-05  0.00E+00  0.00E+00  0.00E+00  0.00E+00  3.55E-06  1.33E-05  2.77E-04  0.00000
    196.   51.020  3.61E-06  1.39E-05  0.00E+00  0.00E+00  0.00E+00  0.00E+00  3.61E-06  1.39E-05  2.85E-04  0.00000
    198.   50.505  3.67E-06  1.44E-05  0.00E+00  0.00E+00  0.00E+00  0.00E+00  3.67E-06  1.44E-05  2.92E-04  0.00000
    200.   50.000  3.64E-06  1.46E-05  0.00E+00  0.00E+00  0.00E+00  0.00E+00  3.64E-06  1.46E-05  2.99E-04  0.00000
  iv          205
1                                             RADIANCE(WATTS/CM2-STER-XXX)
0  FREQ   WAVLEN    PATH THERMAL      SURFACE EMISSION    SURFACE REFLECTED     TOTAL RADIANCE   INTEGRAL    TOTAL
  (CM-1) (MICRN)    (CM-1)   (MICRN)    (CM-1)   (MICRN)    (CM-1)   (MICRN)    (CM-1)   (MICRN)    (CM-1)   TRANS

    202.   49.505  3.58E-06  1.46E-05  0.00E+00  0.00E+00  0.00E+00  0.00E+00  3.58E-06  1.46E-05  3.06E-04  0.00000
    204.   49.020  3.66E-06  1.52E-05  0.00E+00  0.00E+00  0.00E+00  0.00E+00  3.66E-06  1.52E-05  3.14E-04  0.00000
    206.   48.544  3.74E-06  1.59E-05  0.00E+00  0.00E+00  0.00E+00  0.00E+00  3.74E-06  1.59E-05  3.21E-04  0.00000
    208.   48.077  3.73E-06  1.61E-05  0.00E+00  0.00E+00  0.00E+00  0.00E+00  3.73E-06  1.61E-05  3.29E-04  0.00000
    210.   47.619  3.85E-06  1.70E-05  0.00E+00  0.00E+00  0.00E+00  0.00E+00  3.85E-06  1.70E-05  3.36E-04  0.00000
    212.   47.170  3.95E-06  1.78E-05  0.00E+00  0.00E+00  0.00E+00  0.00E+00  3.95E-06  1.78E-05  3.44E-04  0.00000
    214.   46.729  3.95E-06  1.81E-05  0.00E+00  0.00E+00  0.00E+00  0.00E+00  3.95E-06  1.81E-05  3.52E-04  0.00000
    216.   46.296  4.13E-06  1.93E-05  0.00E+00  0.00E+00  0.00E+00  0.00E+00  4.13E-06  1.93E-05  3.60E-04  0.00000
    218.   45.872  4.28E-06  2.03E-05  0.00E+00  0.00E+00  0.00E+00  0.00E+00  4.28E-06  2.03E-05  3.69E-04  0.00000
    220.   45.455  4.17E-06  2.02E-05  0.00E+00  0.00E+00  0.00E+00  0.00E+00  4.17E-06  2.02E-05  3.77E-04  0.00000
    222.   45.045  4.05E-06  1.99E-05  0.00E+00  0.00E+00  0.00E+00  0.00E+00  4.05E-06  1.99E-05  3.85E-04  0.00000
    224.   44.643  4.10E-06  2.06E-05  0.00E+00  0.00E+00  0.00E+00  0.00E+00  4.10E-06  2.06E-05  3.94E-04  0.00000
    226.   44.248  4.08E-06  2.08E-05  0.00E+00  0.00E+00  0.00E+00  0.00E+00  4.08E-06  2.08E-05  4.02E-04  0.00000
    228.   43.860  4.13E-06  2.15E-05  0.00E+00  0.00E+00  0.00E+00  0.00E+00  4.13E-06  2.15E-05  4.10E-04  0.00000
    230.   43.478  4.34E-06  2.29E-05  0.00E+00  0.00E+00  0.00E+00  0.00E+00  4.34E-06  2.29E-05  4.19E-04  0.00000
    232.   43.103  4.48E-06  2.41E-05  0.00E+00  0.00E+00  0.00E+00  0.00E+00  4.48E-06  2.41E-05  4.28E-04  0.00000
    234.   42.735  4.65E-06  2.55E-05  0.00E+00  0.00E+00  0.00E+00  0.00E+00  4.65E-06  2.55E-05  4.37E-04  0.00000
    236.   42.373  4.80E-06  2.67E-05  0.00E+00  0.00E+00  0.00E+00  0.00E+00  4.80E-06  2.67E-05  4.47E-04  0.00000
    238.   42.017  4.87E-06  2.76E-05  0.00E+00  0.00E+00  0.00E+00  0.00E+00  4.87E-06  2.76E-05  4.56E-04  0.00000
    240.   41.667  4.91E-06  2.83E-05  0.00E+00  0.00E+00  0.00E+00  0.00E+00  4.91E-06  2.83E-05  4.66E-04  0.00000
    242.   41.322  4.86E-06  2.85E-05  0.00E+00  0.00E+00  0.00E+00  0.00E+00  4.86E-06  2.85E-05  4.76E-04  0.00000
    244.   40.984  4.63E-06  2.76E-05  0.00E+00  0.00E+00  0.00E+00  0.00E+00  4.63E-06  2.76E-05  4.85E-04  0.00000
    246.   40.650  4.45E-06  2.69E-05  0.00E+00  0.00E+00  0.00E+00  0.00E+00  4.45E-06  2.69E-05  4.94E-04  0.00000
    248.   40.323  4.54E-06  2.79E-05  0.00E+00  0.00E+00  0.00E+00  0.00E+00  4.54E-06  2.79E-05  5.03E-04  0.00000
    250.   40.000  4.75E-06  2.97E-05  0.00E+00  0.00E+00  0.00E+00  0.00E+00  4.75E-06  2.97E-05  5.13E-04  0.00000
    252.   39.683  4.71E-06  2.99E-05  0.00E+00  0.00E+00  0.00E+00  0.00E+00  4.71E-06  2.99E-05  5.22E-04  0.00000
    254.   39.370  4.66E-06  3.00E-05  0.00E+00  0.00E+00  0.00E+00  0.00E+00  4.66E-06  3.00E-05  5.31E-04  0.00000
    256.   39.063  4.91E-06  3.22E-05  0.00E+00  0.00E+00  0.00E+00  0.00E+00  4.91E-06  3.22E-05  5.41E-04  0.00000
    258.   38.760  5.21E-06  3.47E-05  0.00E+00  0.00E+00  0.00E+00  0.00E+00  5.21E-06  3.47E-05  5.52E-04  0.00000
    260.   38.462  5.38E-06  3.64E-05  0.00E+00  0.00E+00  0.00E+00  0.00E+00  5.38E-06  3.64E-05  5.62E-04  0.00000
    262.   38.168  5.41E-06  3.71E-05  0.00E+00  0.00E+00  0.00E+00  0.00E+00  5.41E-06  3.71E-05  5.73E-04  0.00000
    264.   37.879  5.34E-06  3.72E-05  0.00E+00  0.00E+00  0.00E+00  0.00E+00  5.34E-06  3.72E-05  5.84E-04  0.00000
    266.   37.594  5.19E-06  3.67E-05  0.00E+00  0.00E+00  0.00E+00  0.00E+00  5.19E-06  3.67E-05  5.94E-04  0.00000
    268.   37.313  5.39E-06  3.87E-05  0.00E+00  0.00E+00  0.00E+00  0.00E+00  5.39E-06  3.87E-05  6.05E-04  0.00000
    270.   37.037  5.62E-06  4.10E-05  0.00E+00  0.00E+00  0.00E+00  0.00E+00  5.62E-06  4.10E-05  6.16E-04  0.00000
    272.   36.765  5.62E-06  4.16E-05  0.00E+00  0.00E+00  0.00E+00  0.00E+00  5.62E-06  4.16E-05  6.27E-04  0.00000
    274.   36.496  5.51E-06  4.14E-05  0.00E+00  0.00E+00  0.00E+00  0.00E+00  5.51E-06  4.14E-05  6.38E-04  0.00000
    276.   36.232  5.20E-06  3.96E-05  0.00E+00  0.00E+00  0.00E+00  0.00E+00  5.20E-06  3.96E-05  6.49E-04  0.00000
    278.   35.971  5.01E-06  3.87E-05  0.00E+00  0.00E+00  0.00E+00  0.00E+00  5.01E-06  3.87E-05  6.59E-04  0.00000
    280.   35.714  5.05E-06  3.96E-05  0.00E+00  0.00E+00  0.00E+00  0.00E+00  5.05E-06  3.96E-05  6.69E-04  0.00000
    282.   35.461  5.16E-06  4.11E-05  0.00E+00  0.00E+00  0.00E+00  0.00E+00  5.16E-06  4.11E-05  6.79E-04  0.00000
    284.   35.211  5.52E-06  4.45E-05  0.00E+00  0.00E+00  0.00E+00  0.00E+00  5.52E-06  4.45E-05  6.90E-04  0.00000
    286.   34.965  5.78E-06  4.73E-05  0.00E+00  0.00E+00  0.00E+00  0.00E+00  5.78E-06  4.73E-05  7.02E-04  0.00000
    288.   34.722  5.58E-06  4.63E-05  0.00E+00  0.00E+00  0.00E+00  0.00E+00  5.58E-06  4.63E-05  7.13E-04  0.00000
    290.   34.483  5.49E-06  4.61E-05  0.00E+00  0.00E+00  0.00E+00  0.00E+00  5.49E-06  4.61E-05  7.24E-04  0.00000
    292.   34.247  5.92E-06  5.05E-05  0.00E+00  0.00E+00  0.00E+00  0.00E+00  5.92E-06  5.05E-05  7.36E-04  0.00000
    294.   34.014  6.18E-06  5.34E-05  0.00E+00  0.00E+00  0.00E+00  0.00E+00  6.18E-06  5.34E-05  7.48E-04  0.00000
    296.   33.784  6.15E-06  5.39E-05  0.00E+00  0.00E+00  0.00E+00  0.00E+00  6.15E-06  5.39E-05  7.61E-04  0.00000
    298.   33.557  6.03E-06  5.35E-05  0.00E+00  0.00E+00  0.00E+00  0.00E+00  6.03E-06  5.35E-05  7.73E-04  0.00000
    300.   33.333  5.85E-06  5.26E-05  0.00E+00  0.00E+00  0.00E+00  0.00E+00  5.85E-06  5.26E-05  7.84E-04  0.00000
  iv          305
1                                             RADIANCE(WATTS/CM2-STER-XXX)
0  FREQ   WAVLEN    PATH THERMAL      SURFACE EMISSION    SURFACE REFLECTED     TOTAL RADIANCE   INTEGRAL    TOTAL
  (CM-1) (MICRN)    (CM-1)   (MICRN)    (CM-1)   (MICRN)    (CM-1)   (MICRN)    (CM-1)   (MICRN)    (CM-1)   TRANS

    302.   33.113  5.50E-06  5.02E-05  0.00E+00  0.00E+00  0.00E+00  0.00E+00  5.50E-06  5.02E-05  7.95E-04  0.00000
    304.   32.895  5.65E-06  5.22E-05  0.00E+00  0.00E+00  0.00E+00  0.00E+00  5.65E-06  5.22E-05  8.07E-04  0.00000
    306.   32.680  6.17E-06  5.78E-05  0.00E+00  0.00E+00  0.00E+00  0.00E+00  6.17E-06  5.78E-05  8.19E-04  0.00000
    308.   32.468  6.40E-06  6.07E-05  0.00E+00  0.00E+00  0.00E+00  0.00E+00  6.40E-06  6.07E-05  8.32E-04  0.00000
    310.   32.258  6.50E-06  6.25E-05  1.10E-42  1.05E-41  0.00E+00  0.00E+00  6.50E-06  6.25E-05  8.45E-04  0.00000
    312.   32.051  6.57E-06  6.39E-05  2.55E-42  2.49E-41  0.00E+00  0.00E+00  6.57E-06  6.39E-05  8.58E-04  0.00000
    314.   31.847  6.29E-06  6.20E-05  1.18E-39  1.17E-38  0.00E+00  0.00E+00  6.29E-06  6.20E-05  8.70E-04  0.00000
    316.   31.646  6.31E-06  6.30E-05  1.59E-39  1.58E-38  0.00E+00  0.00E+00  6.31E-06  6.30E-05  8.83E-04  0.00000
    318.   31.447  6.72E-06  6.79E-05  1.95E-39  1.97E-38  0.00E+00  0.00E+00  6.72E-06  6.79E-05  8.96E-04  0.00000
    320.   31.250  6.70E-06  6.86E-05  1.14E-39  1.17E-38  0.00E+00  0.00E+00  6.70E-06  6.86E-05  9.10E-04  0.00000
    322.   31.056  6.29E-06  6.52E-05  4.20E-45  4.34E-44  0.00E+00  0.00E+00  6.29E-06  6.52E-05  9.22E-04  0.00000
    324.   30.864  5.99E-06  6.29E-05  5.61E-45  5.89E-44  0.00E+00  0.00E+00  5.99E-06  6.29E-05  9.34E-04  0.00000
    326.   30.675  6.14E-06  6.52E-05  9.81E-45  1.04E-43  0.00E+00  0.00E+00  6.14E-06  6.52E-05  9.47E-04  0.00000
    328.   30.488  6.10E-06  6.57E-05  2.38E-44  2.56E-43  0.00E+00  0.00E+00  6.10E-06  6.57E-05  9.59E-04  0.00000
    330.   30.303  6.62E-06  7.21E-05  2.58E-42  2.81E-41  0.00E+00  0.00E+00  6.62E-06  7.21E-05  9.72E-04  0.00000
    332.   30.120  6.90E-06  7.61E-05  7.72E-42  8.51E-41  0.00E+00  0.00E+00  6.90E-06  7.61E-05  9.86E-04  0.00000
    334.   29.940  6.48E-06  7.23E-05  4.95E-35  5.52E-34  0.00E+00  0.00E+00  6.48E-06  7.23E-05  9.99E-04  0.00000
    336.   29.762  6.41E-06  7.23E-05  5.03E-35  5.68E-34  0.00E+00  0.00E+00  6.41E-06  7.23E-05  1.01E-03  0.00000
    338.   29.586  6.96E-06  7.95E-05  3.48E-36  3.97E-35  0.00E+00  0.00E+00  6.96E-06  7.95E-05  1.03E-03  0.00000
    340.   29.412  6.81E-06  7.87E-05  1.89E-31  2.18E-30  0.00E+00  0.00E+00  6.81E-06  7.87E-05  1.04E-03  0.00000
    342.   29.240  6.75E-06  7.89E-05  2.87E-31  3.35E-30  0.00E+00  0.00E+00  6.75E-06  7.89E-05  1.05E-03  0.00000
    344.   29.070  7.02E-06  8.30E-05  1.02E-31  1.21E-30  0.00E+00  0.00E+00  7.02E-06  8.30E-05  1.07E-03  0.00000
    346.   28.902  7.15E-06  8.56E-05  1.10E-32  1.32E-31  0.00E+00  0.00E+00  7.15E-06  8.56E-05  1.08E-03  0.00000
    348.   28.736  6.94E-06  8.41E-05  3.70E-33  4.49E-32  0.00E+00  0.00E+00  6.94E-06  8.41E-05  1.10E-03  0.00000
    350.   28.571  6.47E-06  7.92E-05  0.00E+00  0.00E+00  0.00E+00  0.00E+00  6.47E-06  7.92E-05  1.11E-03  0.00000
    352.   28.409  6.40E-06  7.93E-05  0.00E+00  0.00E+00  0.00E+00  0.00E+00  6.40E-06  7.93E-05  1.12E-03  0.00000
    354.   28.249  6.47E-06  8.11E-05  0.00E+00  0.00E+00  0.00E+00  0.00E+00  6.47E-06  8.11E-05  1.13E-03  0.00000
    356.   28.090  6.54E-06  8.29E-05  2.09E-42  2.65E-41  0.00E+00  0.00E+00  6.54E-06  8.29E-05  1.15E-03  0.00000
    358.   27.933  6.79E-06  8.70E-05  7.84E-29  1.01E-27  0.00E+00  0.00E+00  6.79E-06  8.70E-05  1.16E-03  0.00000
    360.   27.778  7.50E-06  9.72E-05  4.97E-22  6.44E-21  0.00E+00  0.00E+00  7.50E-06  9.72E-05  1.18E-03  0.00000
    362.   27.624  7.82E-06  1.02E-04  2.41E-19  3.16E-18  0.00E+00  0.00E+00  7.82E-06  1.02E-04  1.19E-03  0.00000
    364.   27.473  7.95E-06  1.05E-04  3.13E-18  4.14E-17  0.00E+00  0.00E+00  7.95E-06  1.05E-04  1.21E-03  0.00000
    366.   27.322  8.04E-06  1.08E-04  5.47E-18  7.33E-17  0.00E+00  0.00E+00  8.04E-06  1.08E-04  1.22E-03  0.00000
    368.   27.174  7.61E-06  1.03E-04  1.60E-18  2.17E-17  0.00E+00  0.00E+00  7.61E-06  1.03E-04  1.24E-03  0.00000
    370.   27.027  7.22E-06  9.89E-05  2.96E-23  4.05E-22  0.00E+00  0.00E+00  7.22E-06  9.89E-05  1.25E-03  0.00000
    372.   26.882  7.54E-06  1.04E-04  7.12E-25  9.86E-24  0.00E+00  0.00E+00  7.54E-06  1.04E-04  1.27E-03  0.00000
    374.   26.738  7.03E-06  9.84E-05  1.04E-25  1.45E-24  0.00E+00  0.00E+00  7.03E-06  9.84E-05  1.28E-03  0.00000
    376.   26.596  7.01E-06  9.91E-05  1.71E-25  2.42E-24  0.00E+00  0.00E+00  7.01E-06  9.91E-05  1.30E-03  0.00000
    378.   26.455  7.79E-06  1.11E-04  7.61E-18  1.09E-16  0.00E+00  0.00E+00  7.79E-06  1.11E-04  1.31E-03  0.00000
    380.   26.316  8.20E-06  1.18E-04  4.39E-17  6.34E-16  0.00E+00  0.00E+00  8.20E-06  1.18E-04  1.33E-03  0.00000
    382.   26.178  8.12E-06  1.18E-04  3.94E-17  5.75E-16  0.00E+00  0.00E+00  8.12E-06  1.18E-04  1.34E-03  0.00000
    384.   26.042  7.35E-06  1.08E-04  5.35E-18  7.89E-17  0.00E+00  0.00E+00  7.35E-06  1.08E-04  1.36E-03  0.00000
    386.   25.907  7.38E-06  1.10E-04  1.18E-15  1.76E-14  0.00E+00  0.00E+00  7.38E-06  1.10E-04  1.37E-03  0.00000
    388.   25.773  8.34E-06  1.26E-04  2.98E-14  4.49E-13  0.00E+00  0.00E+00  8.34E-06  1.26E-04  1.39E-03  0.00000
    390.   25.641  8.64E-06  1.31E-04  5.97E-14  9.08E-13  0.00E+00  0.00E+00  8.64E-06  1.31E-04  1.41E-03  0.00000
    392.   25.510  8.45E-06  1.30E-04  2.49E-14  3.83E-13  0.00E+00  0.00E+00  8.45E-06  1.30E-04  1.42E-03  0.00000
    394.   25.381  7.72E-06  1.20E-04  2.24E-16  3.47E-15  0.00E+00  0.00E+00  7.72E-06  1.20E-04  1.44E-03  0.00000
    396.   25.253  7.07E-06  1.11E-04  6.42E-21  1.01E-19  0.00E+00  0.00E+00  7.07E-06  1.11E-04  1.45E-03  0.00000
    398.   25.126  6.92E-06  1.10E-04  3.41E-31  5.40E-30  0.00E+00  0.00E+00  6.92E-06  1.10E-04  1.47E-03  0.00000
    400.   25.000  7.54E-06  1.21E-04  7.57E-16  1.21E-14  0.00E+00  0.00E+00  7.54E-06  1.21E-04  1.48E-03  0.00000
  iv          405
1                                             RADIANCE(WATTS/CM2-STER-XXX)
0  FREQ   WAVLEN    PATH THERMAL      SURFACE EMISSION    SURFACE REFLECTED     TOTAL RADIANCE   INTEGRAL    TOTAL
  (CM-1) (MICRN)    (CM-1)   (MICRN)    (CM-1)   (MICRN)    (CM-1)   (MICRN)    (CM-1)   (MICRN)    (CM-1)   TRANS

    402.   24.876  8.60E-06  1.39E-04  1.26E-12  2.04E-11  0.00E+00  0.00E+00  8.60E-06  1.39E-04  1.50E-03  0.00000
    404.   24.752  8.99E-06  1.47E-04  8.94E-12  1.46E-10  0.00E+00  0.00E+00  8.99E-06  1.47E-04  1.52E-03  0.00000
    406.   24.631  9.12E-06  1.50E-04  7.40E-11  1.22E-09  0.00E+00  0.00E+00  9.12E-06  1.50E-04  1.54E-03  0.00001
    408.   24.510  9.30E-06  1.55E-04  2.02E-10  3.37E-09  0.00E+00  0.00E+00  9.30E-06  1.55E-04  1.55E-03  0.00002
    410.   24.390  9.35E-06  1.57E-04  2.41E-10  4.06E-09  0.00E+00  0.00E+00  9.35E-06  1.57E-04  1.57E-03  0.00002
    412.   24.272  9.33E-06  1.58E-04  1.66E-10  2.81E-09  0.00E+00  0.00E+00  9.33E-06  1.58E-04  1.59E-03  0.00001
    414.   24.155  9.10E-06  1.56E-04  4.37E-11  7.49E-10  0.00E+00  0.00E+00  9.10E-06  1.56E-04  1.61E-03  0.00000
    416.   24.038  8.42E-06  1.46E-04  1.36E-12  2.36E-11  0.00E+00  0.00E+00  8.42E-06  1.46E-04  1.63E-03  0.00000
    418.   23.923  7.29E-06  1.27E-04  9.38E-18  1.64E-16  0.00E+00  0.00E+00  7.29E-06  1.27E-04  1.64E-03  0.00000
    420.   23.810  7.33E-06  1.29E-04  1.84E-26  3.24E-25  0.00E+00  0.00E+00  7.33E-06  1.29E-04  1.66E-03  0.00000
    422.   23.697  8.12E-06  1.45E-04  1.42E-18  2.53E-17  0.00E+00  0.00E+00  8.12E-06  1.45E-04  1.67E-03  0.00000
    424.   23.585  8.34E-06  1.50E-04  1.03E-15  1.85E-14  0.00E+00  0.00E+00  8.34E-06  1.50E-04  1.69E-03  0.00000
    426.   23.474  8.68E-06  1.58E-04  1.06E-10  1.93E-09  0.00E+00  0.00E+00  8.68E-06  1.58E-04  1.71E-03  0.00001
    428.   23.364  9.36E-06  1.71E-04  5.04E-10  9.23E-09  0.00E+00  0.00E+00  9.36E-06  1.71E-04  1.73E-03  0.00004
    430.   23.256  9.10E-06  1.68E-04  3.54E-10  6.55E-09  0.00E+00  0.00E+00  9.10E-06  1.68E-04  1.74E-03  0.00003
    432.   23.148  9.04E-06  1.69E-04  5.11E-10  9.54E-09  0.00E+00  0.00E+00  9.04E-06  1.69E-04  1.76E-03  0.00004
    434.   23.041  9.32E-06  1.75E-04  5.06E-10  9.54E-09  0.00E+00  0.00E+00  9.32E-06  1.75E-04  1.78E-03  0.00004
    436.   22.936  9.10E-06  1.73E-04  3.38E-10  6.42E-09  0.00E+00  0.00E+00  9.10E-06  1.73E-04  1.80E-03  0.00003
    438.   22.831  9.62E-06  1.85E-04  2.02E-09  3.88E-08  0.00E+00  0.00E+00  9.63E-06  1.85E-04  1.82E-03  0.00016
    440.   22.727  9.31E-06  1.80E-04  1.67E-09  3.24E-08  0.00E+00  0.00E+00  9.31E-06  1.80E-04  1.84E-03  0.00013
    442.   22.624  8.23E-06  1.61E-04  1.45E-10  2.84E-09  0.00E+00  0.00E+00  8.23E-06  1.61E-04  1.85E-03  0.00001
    444.   22.523  8.67E-06  1.71E-04  3.65E-11  7.20E-10  0.00E+00  0.00E+00  8.67E-06  1.71E-04  1.87E-03  0.00000
    446.   22.422  9.22E-06  1.83E-04  4.28E-10  8.52E-09  0.00E+00  0.00E+00  9.22E-06  1.83E-04  1.89E-03  0.00003
    448.   22.321  9.68E-06  1.94E-04  6.40E-09  1.28E-07  0.00E+00  0.00E+00  9.69E-06  1.94E-04  1.91E-03  0.00051
    450.   22.222  9.93E-06  2.01E-04  7.07E-09  1.43E-07  0.00E+00  0.00E+00  9.94E-06  2.01E-04  1.93E-03  0.00056
    452.   22.124  9.29E-06  1.90E-04  1.01E-09  2.06E-08  0.00E+00  0.00E+00  9.29E-06  1.90E-04  1.95E-03  0.00008
    454.   22.026  9.22E-06  1.90E-04  4.16E-11  8.58E-10  0.00E+00  0.00E+00  9.22E-06  1.90E-04  1.97E-03  0.00000
    456.   21.930  8.57E-06  1.78E-04  1.40E-11  2.91E-10  0.00E+00  0.00E+00  8.57E-06  1.78E-04  1.98E-03  0.00000
    458.   21.834  7.96E-06  1.67E-04  4.79E-12  1.00E-10  0.00E+00  0.00E+00  7.96E-06  1.67E-04  2.00E-03  0.00000
    460.   21.739  9.12E-06  1.93E-04  7.04E-11  1.49E-09  0.00E+00  0.00E+00  9.12E-06  1.93E-04  2.02E-03  0.00001
    462.   21.645  9.91E-06  2.11E-04  1.29E-08  2.76E-07  0.00E+00  0.00E+00  9.92E-06  2.12E-04  2.04E-03  0.00101
    464.   21.552  1.03E-05  2.23E-04  5.06E-08  1.09E-06  0.00E+00  0.00E+00  1.04E-05  2.24E-04  2.06E-03  0.00396
    466.   21.459  1.01E-05  2.18E-04  3.94E-08  8.56E-07  0.00E+00  0.00E+00  1.01E-05  2.19E-04  2.08E-03  0.00309
    468.   21.368  9.51E-06  2.08E-04  4.02E-09  8.81E-08  0.00E+00  0.00E+00  9.52E-06  2.08E-04  2.10E-03  0.00031
    470.   21.277  9.32E-06  2.06E-04  9.46E-10  2.09E-08  0.00E+00  0.00E+00  9.32E-06  2.06E-04  2.11E-03  0.00007
    472.   21.186  8.29E-06  1.85E-04  2.19E-10  4.88E-09  0.00E+00  0.00E+00  8.29E-06  1.85E-04  2.13E-03  0.00002
    474.   21.097  8.91E-06  2.00E-04  2.90E-09  6.51E-08  0.00E+00  0.00E+00  8.91E-06  2.00E-04  2.15E-03  0.00023
    476.   21.008  1.01E-05  2.29E-04  4.58E-08  1.04E-06  0.00E+00  0.00E+00  1.02E-05  2.30E-04  2.17E-03  0.00355
    478.   20.921  1.05E-05  2.41E-04  1.80E-07  4.11E-06  0.00E+00  0.00E+00  1.07E-05  2.45E-04  2.19E-03  0.01392
    480.   20.833  1.04E-05  2.41E-04  1.56E-07  3.60E-06  0.00E+00  0.00E+00  1.06E-05  2.44E-04  2.21E-03  0.01210
    482.   20.747  9.68E-06  2.25E-04  3.21E-08  7.45E-07  0.00E+00  0.00E+00  9.71E-06  2.26E-04  2.23E-03  0.00248
    484.   20.661  8.97E-06  2.10E-04  3.42E-09  8.00E-08  0.00E+00  0.00E+00  8.97E-06  2.10E-04  2.25E-03  0.00026
    486.   20.576  9.83E-06  2.32E-04  6.27E-08  1.48E-06  0.00E+00  0.00E+00  9.90E-06  2.34E-04  2.27E-03  0.00482
    488.   20.492  1.06E-05  2.51E-04  2.80E-07  6.68E-06  0.00E+00  0.00E+00  1.08E-05  2.58E-04  2.29E-03  0.02156
    490.   20.408  1.04E-05  2.49E-04  2.26E-07  5.42E-06  0.00E+00  0.00E+00  1.06E-05  2.54E-04  2.31E-03  0.01734
    492.   20.325  9.65E-06  2.34E-04  4.08E-08  9.88E-07  0.00E+00  0.00E+00  9.69E-06  2.35E-04  2.33E-03  0.00313
    494.   20.243  1.02E-05  2.48E-04  2.59E-07  6.31E-06  0.00E+00  0.00E+00  1.04E-05  2.54E-04  2.35E-03  0.01979
    496.   20.161  1.05E-05  2.59E-04  7.59E-07  1.87E-05  0.00E+00  0.00E+00  1.13E-05  2.78E-04  2.37E-03  0.05802
    498.   20.080  1.06E-05  2.62E-04  7.81E-07  1.94E-05  0.00E+00  0.00E+00  1.13E-05  2.81E-04  2.40E-03  0.05967
    500.   20.000  1.02E-05  2.56E-04  2.94E-07  7.35E-06  0.00E+00  0.00E+00  1.05E-05  2.63E-04  2.42E-03  0.02244
  iv          505
1                                             RADIANCE(WATTS/CM2-STER-XXX)
0  FREQ   WAVLEN    PATH THERMAL      SURFACE EMISSION    SURFACE REFLECTED     TOTAL RADIANCE   INTEGRAL    TOTAL
  (CM-1) (MICRN)    (CM-1)   (MICRN)    (CM-1)   (MICRN)    (CM-1)   (MICRN)    (CM-1)   (MICRN)    (CM-1)   TRANS

    502.   19.920  9.26E-06  2.33E-04  2.01E-08  5.06E-07  0.00E+00  0.00E+00  9.28E-06  2.34E-04  2.44E-03  0.00153
    504.   19.841  9.63E-06  2.45E-04  7.43E-09  1.89E-07  0.00E+00  0.00E+00  9.63E-06  2.45E-04  2.46E-03  0.00057
    506.   19.763  9.38E-06  2.40E-04  7.39E-09  1.89E-07  0.00E+00  0.00E+00  9.39E-06  2.40E-04  2.48E-03  0.00056
    508.   19.685  9.73E-06  2.51E-04  8.36E-08  2.16E-06  0.00E+00  0.00E+00  9.81E-06  2.53E-04  2.49E-03  0.00635
    510.   19.608  1.04E-05  2.70E-04  1.34E-07  3.48E-06  0.00E+00  0.00E+00  1.05E-05  2.73E-04  2.52E-03  0.01017
    512.   19.531  1.04E-05  2.72E-04  3.41E-07  8.93E-06  0.00E+00  0.00E+00  1.07E-05  2.81E-04  2.54E-03  0.02585
    514.   19.455  1.04E-05  2.76E-04  3.36E-07  8.88E-06  0.00E+00  0.00E+00  1.08E-05  2.85E-04  2.56E-03  0.02550
    516.   19.380  9.46E-06  2.52E-04  3.86E-08  1.03E-06  0.00E+00  0.00E+00  9.50E-06  2.53E-04  2.58E-03  0.00293
    518.   19.305  8.83E-06  2.37E-04  5.19E-11  1.39E-09  0.00E+00  0.00E+00  8.83E-06  2.37E-04  2.60E-03  0.00000
    520.   19.231  9.47E-06  2.56E-04  8.12E-08  2.19E-06  0.00E+00  0.00E+00  9.55E-06  2.58E-04  2.61E-03  0.00613
    522.   19.157  1.05E-05  2.85E-04  3.74E-07  1.02E-05  0.00E+00  0.00E+00  1.09E-05  2.96E-04  2.64E-03  0.02827
    524.   19.084  1.01E-05  2.78E-04  2.61E-07  7.15E-06  0.00E+00  0.00E+00  1.04E-05  2.85E-04  2.66E-03  0.01968
    526.   19.011  9.47E-06  2.62E-04  1.16E-07  3.21E-06  0.00E+00  0.00E+00  9.59E-06  2.65E-04  2.68E-03  0.00874
    528.   18.939  1.02E-05  2.84E-04  7.43E-07  2.07E-05  0.00E+00  0.00E+00  1.09E-05  3.04E-04  2.70E-03  0.05603
    530.   18.868  9.85E-06  2.77E-04  1.91E-06  5.37E-05  0.00E+00  0.00E+00  1.18E-05  3.30E-04  2.72E-03  0.14417
    532.   18.797  9.64E-06  2.73E-04  2.20E-06  6.23E-05  0.00E+00  0.00E+00  1.18E-05  3.35E-04  2.75E-03  0.16577
    534.   18.727  1.00E-05  2.86E-04  1.24E-06  3.54E-05  0.00E+00  0.00E+00  1.13E-05  3.22E-04  2.77E-03  0.09361
    536.   18.657  9.93E-06  2.85E-04  6.00E-07  1.72E-05  0.00E+00  0.00E+00  1.05E-05  3.02E-04  2.79E-03  0.04513
    538.   18.587  9.81E-06  2.84E-04  1.47E-06  4.26E-05  0.00E+00  0.00E+00  1.13E-05  3.26E-04  2.81E-03  0.11076
    540.   18.519  9.76E-06  2.85E-04  1.64E-06  4.77E-05  0.00E+00  0.00E+00  1.14E-05  3.32E-04  2.83E-03  0.12295
    542.   18.450  1.01E-05  2.95E-04  1.17E-06  3.45E-05  0.00E+00  0.00E+00  1.12E-05  3.30E-04  2.86E-03  0.08818
    544.   18.382  9.70E-06  2.87E-04  7.84E-07  2.32E-05  0.00E+00  0.00E+00  1.05E-05  3.10E-04  2.88E-03  0.05892
    546.   18.315  9.31E-06  2.78E-04  7.71E-08  2.30E-06  0.00E+00  0.00E+00  9.39E-06  2.80E-04  2.90E-03  0.00579
    548.   18.248  9.84E-06  2.95E-04  3.10E-07  9.32E-06  0.00E+00  0.00E+00  1.01E-05  3.05E-04  2.92E-03  0.02331
    550.   18.182  1.01E-05  3.05E-04  5.72E-07  1.73E-05  0.00E+00  0.00E+00  1.06E-05  3.22E-04  2.94E-03  0.04290
    552.   18.116  9.94E-06  3.03E-04  1.37E-06  4.18E-05  0.00E+00  0.00E+00  1.13E-05  3.45E-04  2.96E-03  0.10293
    554.   18.051  9.82E-06  3.01E-04  1.33E-06  4.07E-05  0.00E+00  0.00E+00  1.11E-05  3.42E-04  2.98E-03  0.09948
    556.   17.986  9.65E-06  2.98E-04  1.54E-06  4.75E-05  0.00E+00  0.00E+00  1.12E-05  3.46E-04  3.01E-03  0.11528
    558.   17.921  9.24E-06  2.88E-04  2.61E-06  8.12E-05  0.00E+00  0.00E+00  1.18E-05  3.69E-04  3.03E-03  0.19557
    560.   17.857  8.69E-06  2.72E-04  3.40E-06  1.07E-04  0.00E+00  0.00E+00  1.21E-05  3.79E-04  3.05E-03  0.25509
    562.   17.794  9.00E-06  2.84E-04  2.46E-06  7.78E-05  0.00E+00  0.00E+00  1.15E-05  3.62E-04  3.08E-03  0.18484
    564.   17.730  9.79E-06  3.11E-04  1.33E-06  4.24E-05  0.00E+00  0.00E+00  1.11E-05  3.54E-04  3.10E-03  0.10008
    566.   17.668  9.74E-06  3.12E-04  9.49E-07  3.04E-05  0.00E+00  0.00E+00  1.07E-05  3.42E-04  3.12E-03  0.07114
    568.   17.606  9.40E-06  3.03E-04  1.17E-07  3.78E-06  0.00E+00  0.00E+00  9.52E-06  3.07E-04  3.14E-03  0.00879
    570.   17.544  9.70E-06  3.15E-04  1.99E-07  6.48E-06  0.00E+00  0.00E+00  9.90E-06  3.22E-04  3.16E-03  0.01496
    572.   17.483  9.83E-06  3.22E-04  1.25E-06  4.10E-05  0.00E+00  0.00E+00  1.11E-05  3.63E-04  3.18E-03  0.09399
    574.   17.422  9.49E-06  3.13E-04  1.59E-06  5.24E-05  0.00E+00  0.00E+00  1.11E-05  3.65E-04  3.20E-03  0.11935
    576.   17.361  9.47E-06  3.14E-04  5.03E-07  1.67E-05  0.00E+00  0.00E+00  9.97E-06  3.31E-04  3.22E-03  0.03776
    578.   17.301  9.66E-06  3.23E-04  6.32E-07  2.11E-05  0.00E+00  0.00E+00  1.03E-05  3.44E-04  3.24E-03  0.04747
    580.   17.241  9.44E-06  3.18E-04  4.42E-07  1.49E-05  0.00E+00  0.00E+00  9.88E-06  3.33E-04  3.26E-03  0.03315
    582.   17.182  9.29E-06  3.15E-04  3.12E-07  1.06E-05  0.00E+00  0.00E+00  9.60E-06  3.25E-04  3.28E-03  0.02344
    584.   17.123  9.29E-06  3.17E-04  4.72E-07  1.61E-05  0.00E+00  0.00E+00  9.76E-06  3.33E-04  3.30E-03  0.03547
    586.   17.065  8.84E-06  3.03E-04  6.78E-07  2.33E-05  0.00E+00  0.00E+00  9.51E-06  3.27E-04  3.32E-03  0.05095
    588.   17.007  8.56E-06  2.96E-04  1.00E-06  3.47E-05  0.00E+00  0.00E+00  9.56E-06  3.31E-04  3.34E-03  0.07545
    590.   16.949  8.41E-06  2.93E-04  4.08E-07  1.42E-05  0.00E+00  0.00E+00  8.82E-06  3.07E-04  3.36E-03  0.03067
    592.   16.892  8.14E-06  2.85E-04  3.27E-08  1.15E-06  0.00E+00  0.00E+00  8.17E-06  2.86E-04  3.37E-03  0.00246
    594.   16.835  7.82E-06  2.76E-04  2.12E-08  7.48E-07  0.00E+00  0.00E+00  7.85E-06  2.77E-04  3.39E-03  0.00160
    596.   16.779  7.26E-06  2.58E-04  4.68E-08  1.66E-06  0.00E+00  0.00E+00  7.31E-06  2.60E-04  3.40E-03  0.00352
    598.   16.722  7.44E-06  2.66E-04  1.31E-07  4.67E-06  0.00E+00  0.00E+00  7.57E-06  2.71E-04  3.42E-03  0.00983
    600.   16.667  7.94E-06  2.86E-04  1.50E-07  5.40E-06  0.00E+00  0.00E+00  8.09E-06  2.91E-04  3.44E-03  0.01130
  iv          605
1                                             RADIANCE(WATTS/CM2-STER-XXX)
0  FREQ   WAVLEN    PATH THERMAL      SURFACE EMISSION    SURFACE REFLECTED     TOTAL RADIANCE   INTEGRAL    TOTAL
  (CM-1) (MICRN)    (CM-1)   (MICRN)    (CM-1)   (MICRN)    (CM-1)   (MICRN)    (CM-1)   (MICRN)    (CM-1)   TRANS

    602.   16.611  7.59E-06  2.75E-04  1.38E-07  5.00E-06  0.00E+00  0.00E+00  7.73E-06  2.80E-04  3.45E-03  0.01041
    604.   16.556  7.27E-06  2.65E-04  1.00E-07  3.66E-06  0.00E+00  0.00E+00  7.37E-06  2.69E-04  3.47E-03  0.00757
    606.   16.502  7.05E-06  2.59E-04  7.91E-08  2.90E-06  0.00E+00  0.00E+00  7.12E-06  2.62E-04  3.48E-03  0.00597
    608.   16.447  6.94E-06  2.57E-04  8.10E-08  3.00E-06  0.00E+00  0.00E+00  7.02E-06  2.60E-04  3.49E-03  0.00612
    610.   16.393  7.16E-06  2.67E-04  1.05E-07  3.92E-06  0.00E+00  0.00E+00  7.27E-06  2.70E-04  3.51E-03  0.00797
    612.   16.340  7.19E-06  2.69E-04  1.11E-07  4.14E-06  0.00E+00  0.00E+00  7.30E-06  2.74E-04  3.52E-03  0.00836
    614.   16.287  6.69E-06  2.52E-04  3.99E-08  1.50E-06  0.00E+00  0.00E+00  6.73E-06  2.54E-04  3.54E-03  0.00302
    616.   16.234  5.98E-06  2.27E-04  6.18E-09  2.34E-07  0.00E+00  0.00E+00  5.99E-06  2.27E-04  3.55E-03  0.00047
    618.   16.181  5.87E-06  2.24E-04  2.58E-09  9.85E-08  0.00E+00  0.00E+00  5.87E-06  2.24E-04  3.56E-03  0.00020
    620.   16.129  6.38E-06  2.45E-04  1.03E-08  3.94E-07  0.00E+00  0.00E+00  6.39E-06  2.46E-04  3.57E-03  0.00078
    622.   16.077  6.32E-06  2.45E-04  1.63E-08  6.29E-07  0.00E+00  0.00E+00  6.34E-06  2.45E-04  3.59E-03  0.00123
    624.   16.026  5.96E-06  2.32E-04  9.54E-09  3.72E-07  0.00E+00  0.00E+00  5.97E-06  2.32E-04  3.60E-03  0.00072
    626.   15.974  5.67E-06  2.22E-04  2.46E-10  9.65E-09  0.00E+00  0.00E+00  5.67E-06  2.22E-04  3.61E-03  0.00002
    628.   15.924  5.44E-06  2.15E-04  1.14E-10  4.48E-09  0.00E+00  0.00E+00  5.44E-06  2.15E-04  3.62E-03  0.00001
    630.   15.873  5.30E-06  2.10E-04  6.72E-11  2.67E-09  0.00E+00  0.00E+00  5.30E-06  2.10E-04  3.63E-03  0.00001
    632.   15.823  5.19E-06  2.07E-04  6.32E-12  2.53E-10  0.00E+00  0.00E+00  5.19E-06  2.07E-04  3.64E-03  0.00000
    634.   15.773  5.11E-06  2.06E-04  7.98E-13  3.21E-11  0.00E+00  0.00E+00  5.11E-06  2.06E-04  3.65E-03  0.00000
    636.   15.723  5.06E-06  2.05E-04  1.45E-14  5.87E-13  0.00E+00  0.00E+00  5.06E-06  2.05E-04  3.66E-03  0.00000
    638.   15.674  5.04E-06  2.05E-04  4.02E-17  1.63E-15  0.00E+00  0.00E+00  5.04E-06  2.05E-04  3.67E-03  0.00000
    640.   15.625  5.04E-06  2.06E-04  2.68E-18  1.10E-16  0.00E+00  0.00E+00  5.04E-06  2.06E-04  3.68E-03  0.00000
    642.   15.576  5.07E-06  2.09E-04  8.78E-20  3.62E-18  0.00E+00  0.00E+00  5.07E-06  2.09E-04  3.69E-03  0.00000
    644.   15.528  5.12E-06  2.12E-04  6.56E-23  2.72E-21  0.00E+00  0.00E+00  5.12E-06  2.12E-04  3.70E-03  0.00000
    646.   15.480  5.20E-06  2.17E-04  7.23E-25  3.02E-23  0.00E+00  0.00E+00  5.20E-06  2.17E-04  3.71E-03  0.00000
    648.   15.432  5.49E-06  2.31E-04  8.87E-27  3.73E-25  0.00E+00  0.00E+00  5.49E-06  2.31E-04  3.72E-03  0.00000
    650.   15.385  5.52E-06  2.33E-04  4.95E-32  2.09E-30  0.00E+00  0.00E+00  5.52E-06  2.33E-04  3.73E-03  0.00000
    652.   15.337  5.28E-06  2.24E-04  1.54E-31  6.53E-30  0.00E+00  0.00E+00  5.28E-06  2.24E-04  3.75E-03  0.00000
    654.   15.291  5.19E-06  2.22E-04  1.41E-26  6.03E-25  0.00E+00  0.00E+00  5.19E-06  2.22E-04  3.76E-03  0.00000
    656.   15.244  5.17E-06  2.23E-04  1.41E-26  6.07E-25  0.00E+00  0.00E+00  5.17E-06  2.23E-04  3.77E-03  0.00000
    658.   15.198  5.21E-06  2.26E-04  1.04E-31  4.51E-30  0.00E+00  0.00E+00  5.21E-06  2.26E-04  3.78E-03  0.00000
    660.   15.152  5.18E-06  2.26E-04  9.25E-32  4.03E-30  0.00E+00  0.00E+00  5.18E-06  2.26E-04  3.79E-03  0.00000
    662.   15.106  5.37E-06  2.35E-04  7.03E-32  3.08E-30  0.00E+00  0.00E+00  5.37E-06  2.35E-04  3.80E-03  0.00000
    664.   15.060  5.37E-06  2.37E-04  0.00E+00  0.00E+00  0.00E+00  0.00E+00  5.37E-06  2.37E-04  3.81E-03  0.00000
    666.   15.015  5.90E-06  2.62E-04  0.00E+00  0.00E+00  0.00E+00  0.00E+00  5.90E-06  2.62E-04  3.82E-03  0.00000
    668.   14.970  6.90E-06  3.08E-04  0.00E+00  0.00E+00  0.00E+00  0.00E+00  6.90E-06  3.08E-04  3.83E-03  0.00000
    670.   14.925  6.01E-06  2.70E-04  0.00E+00  0.00E+00  0.00E+00  0.00E+00  6.01E-06  2.70E-04  3.85E-03  0.00000
    672.   14.881  5.23E-06  2.36E-04  2.82E-37  1.27E-35  0.00E+00  0.00E+00  5.23E-06  2.36E-04  3.86E-03  0.00000
    674.   14.837  5.12E-06  2.32E-04  1.13E-31  5.13E-30  0.00E+00  0.00E+00  5.12E-06  2.32E-04  3.87E-03  0.00000
    676.   14.793  5.04E-06  2.31E-04  3.39E-31  1.55E-29  0.00E+00  0.00E+00  5.04E-06  2.31E-04  3.88E-03  0.00000
    678.   14.749  5.09E-06  2.34E-04  1.13E-31  5.19E-30  0.00E+00  0.00E+00  5.09E-06  2.34E-04  3.89E-03  0.00000
    680.   14.706  5.06E-06  2.34E-04  1.53E-37  7.08E-36  0.00E+00  0.00E+00  5.06E-06  2.34E-04  3.90E-03  0.00000
    682.   14.663  5.01E-06  2.33E-04  4.34E-29  2.02E-27  0.00E+00  0.00E+00  5.01E-06  2.33E-04  3.91E-03  0.00000
    684.   14.620  4.89E-06  2.29E-04  1.48E-28  6.90E-27  0.00E+00  0.00E+00  4.89E-06  2.29E-04  3.92E-03  0.00000
    686.   14.577  4.86E-06  2.29E-04  9.58E-29  4.51E-27  0.00E+00  0.00E+00  4.86E-06  2.29E-04  3.93E-03  0.00000
    688.   14.535  4.83E-06  2.28E-04  5.67E-29  2.68E-27  0.00E+00  0.00E+00  4.83E-06  2.28E-04  3.94E-03  0.00000
    690.   14.493  4.76E-06  2.27E-04  7.80E-21  3.71E-19  0.00E+00  0.00E+00  4.76E-06  2.27E-04  3.95E-03  0.00000
    692.   14.451  4.59E-06  2.20E-04  4.75E-20  2.28E-18  0.00E+00  0.00E+00  4.59E-06  2.20E-04  3.95E-03  0.00000
    694.   14.409  4.54E-06  2.18E-04  1.10E-19  5.30E-18  0.00E+00  0.00E+00  4.54E-06  2.18E-04  3.96E-03  0.00000
    696.   14.368  4.49E-06  2.17E-04  4.78E-18  2.32E-16  0.00E+00  0.00E+00  4.49E-06  2.17E-04  3.97E-03  0.00000
    698.   14.327  4.45E-06  2.17E-04  3.20E-14  1.56E-12  0.00E+00  0.00E+00  4.45E-06  2.17E-04  3.98E-03  0.00000
    700.   14.286  4.41E-06  2.16E-04  9.93E-14  4.87E-12  0.00E+00  0.00E+00  4.41E-06  2.16E-04  3.99E-03  0.00000
  iv          705
1                                             RADIANCE(WATTS/CM2-STER-XXX)
0  FREQ   WAVLEN    PATH THERMAL      SURFACE EMISSION    SURFACE REFLECTED     TOTAL RADIANCE   INTEGRAL    TOTAL
  (CM-1) (MICRN)    (CM-1)   (MICRN)    (CM-1)   (MICRN)    (CM-1)   (MICRN)    (CM-1)   (MICRN)    (CM-1)   TRANS

    702.   14.245  4.44E-06  2.19E-04  4.65E-14  2.29E-12  0.00E+00  0.00E+00  4.44E-06  2.19E-04  4.00E-03  0.00000
    704.   14.205  4.56E-06  2.26E-04  2.45E-12  1.22E-10  0.00E+00  0.00E+00  4.56E-06  2.26E-04  4.01E-03  0.00000
    706.   14.164  4.72E-06  2.35E-04  2.73E-11  1.36E-09  0.00E+00  0.00E+00  4.72E-06  2.35E-04  4.02E-03  0.00000
    708.   14.124  4.84E-06  2.42E-04  3.58E-10  1.80E-08  0.00E+00  0.00E+00  4.84E-06  2.42E-04  4.03E-03  0.00003
    710.   14.085  4.95E-06  2.49E-04  2.39E-09  1.20E-07  0.00E+00  0.00E+00  4.95E-06  2.50E-04  4.04E-03  0.00019
    712.   14.045  5.17E-06  2.62E-04  6.14E-09  3.11E-07  0.00E+00  0.00E+00  5.17E-06  2.62E-04  4.05E-03  0.00049
    714.   14.006  5.37E-06  2.74E-04  1.13E-08  5.75E-07  0.00E+00  0.00E+00  5.38E-06  2.74E-04  4.06E-03  0.00091
    716.   13.966  5.42E-06  2.78E-04  1.82E-08  9.35E-07  0.00E+00  0.00E+00  5.44E-06  2.79E-04  4.07E-03  0.00148
    718.   13.928  4.96E-06  2.56E-04  8.07E-09  4.16E-07  0.00E+00  0.00E+00  4.97E-06  2.56E-04  4.08E-03  0.00065
    720.   13.889  4.66E-06  2.42E-04  2.29E-10  1.19E-08  0.00E+00  0.00E+00  4.66E-06  2.42E-04  4.09E-03  0.00002
    722.   13.850  5.42E-06  2.82E-04  6.48E-08  3.38E-06  0.00E+00  0.00E+00  5.48E-06  2.86E-04  4.10E-03  0.00528
    724.   13.812  6.05E-06  3.17E-04  2.67E-07  1.40E-05  0.00E+00  0.00E+00  6.32E-06  3.31E-04  4.11E-03  0.02181
    726.   13.774  6.30E-06  3.32E-04  5.06E-07  2.67E-05  0.00E+00  0.00E+00  6.81E-06  3.59E-04  4.13E-03  0.04136
    728.   13.736  6.19E-06  3.28E-04  3.10E-07  1.64E-05  0.00E+00  0.00E+00  6.50E-06  3.45E-04  4.14E-03  0.02533
    730.   13.699  5.88E-06  3.14E-04  1.34E-07  7.14E-06  0.00E+00  0.00E+00  6.02E-06  3.21E-04  4.15E-03  0.01099
    732.   13.661  5.84E-06  3.13E-04  1.44E-07  7.71E-06  0.00E+00  0.00E+00  5.99E-06  3.21E-04  4.16E-03  0.01183
    734.   13.624  5.91E-06  3.18E-04  1.83E-07  9.86E-06  0.00E+00  0.00E+00  6.09E-06  3.28E-04  4.18E-03  0.01508
    736.   13.587  5.92E-06  3.21E-04  1.96E-07  1.06E-05  0.00E+00  0.00E+00  6.11E-06  3.31E-04  4.19E-03  0.01614
    738.   13.550  5.90E-06  3.21E-04  1.59E-07  8.67E-06  0.00E+00  0.00E+00  6.06E-06  3.30E-04  4.20E-03  0.01317
    740.   13.514  5.64E-06  3.09E-04  8.34E-08  4.56E-06  0.00E+00  0.00E+00  5.72E-06  3.13E-04  4.21E-03  0.00691
    742.   13.477  5.67E-06  3.12E-04  2.96E-07  1.63E-05  0.00E+00  0.00E+00  5.97E-06  3.29E-04  4.22E-03  0.02464
    744.   13.441  6.34E-06  3.51E-04  7.21E-07  3.99E-05  0.00E+00  0.00E+00  7.06E-06  3.91E-04  4.24E-03  0.06011
    746.   13.405  6.43E-06  3.58E-04  1.15E-06  6.42E-05  0.00E+00  0.00E+00  7.59E-06  4.22E-04  4.25E-03  0.09637
    748.   13.369  6.39E-06  3.57E-04  1.46E-06  8.16E-05  0.00E+00  0.00E+00  7.84E-06  4.39E-04  4.27E-03  0.12203
    750.   13.333  6.26E-06  3.52E-04  1.84E-06  1.04E-04  0.00E+00  0.00E+00  8.10E-06  4.56E-04  4.28E-03  0.15436
    752.   13.298  6.30E-06  3.56E-04  2.08E-06  1.18E-04  0.00E+00  0.00E+00  8.39E-06  4.74E-04  4.30E-03  0.17510
    754.   13.263  6.60E-06  3.75E-04  1.86E-06  1.06E-04  0.00E+00  0.00E+00  8.46E-06  4.81E-04  4.32E-03  0.15650
    756.   13.228  6.37E-06  3.64E-04  2.30E-06  1.31E-04  0.00E+00  0.00E+00  8.67E-06  4.95E-04  4.33E-03  0.19390
    758.   13.193  5.38E-06  3.09E-04  3.96E-06  2.27E-04  0.00E+00  0.00E+00  9.33E-06  5.36E-04  4.35E-03  0.33469
    760.   13.158  4.72E-06  2.73E-04  5.23E-06  3.02E-04  0.00E+00  0.00E+00  9.95E-06  5.75E-04  4.37E-03  0.44344
    762.   13.123  4.25E-06  2.47E-04  6.01E-06  3.49E-04  0.00E+00  0.00E+00  1.03E-05  5.96E-04  4.39E-03  0.51121
    764.   13.089  3.75E-06  2.19E-04  6.74E-06  3.93E-04  0.00E+00  0.00E+00  1.05E-05  6.12E-04  4.42E-03  0.57423
    766.   13.055  3.56E-06  2.09E-04  7.09E-06  4.16E-04  0.00E+00  0.00E+00  1.07E-05  6.25E-04  4.44E-03  0.60582
    768.   13.021  3.90E-06  2.30E-04  6.72E-06  3.96E-04  0.00E+00  0.00E+00  1.06E-05  6.26E-04  4.46E-03  0.57491
    770.   12.987  3.94E-06  2.34E-04  6.67E-06  3.96E-04  0.00E+00  0.00E+00  1.06E-05  6.29E-04  4.48E-03  0.57261
    772.   12.953  2.89E-06  1.72E-04  8.03E-06  4.79E-04  0.00E+00  0.00E+00  1.09E-05  6.51E-04  4.50E-03  0.69070
    774.   12.920  2.95E-06  1.77E-04  7.97E-06  4.77E-04  0.00E+00  0.00E+00  1.09E-05  6.54E-04  4.52E-03  0.68665
    776.   12.887  4.19E-06  2.52E-04  6.35E-06  3.82E-04  0.00E+00  0.00E+00  1.05E-05  6.35E-04  4.54E-03  0.54836
    778.   12.853  3.77E-06  2.28E-04  6.86E-06  4.15E-04  0.00E+00  0.00E+00  1.06E-05  6.43E-04  4.56E-03  0.59451
    780.   12.821  2.63E-06  1.60E-04  8.31E-06  5.06E-04  0.00E+00  0.00E+00  1.09E-05  6.66E-04  4.59E-03  0.72203
    782.   12.788  2.62E-06  1.60E-04  8.25E-06  5.04E-04  0.00E+00  0.00E+00  1.09E-05  6.64E-04  4.61E-03  0.71782
    784.   12.755  3.78E-06  2.33E-04  6.69E-06  4.11E-04  0.00E+00  0.00E+00  1.05E-05  6.44E-04  4.63E-03  0.58426
    786.   12.723  2.69E-06  1.66E-04  8.14E-06  5.03E-04  0.00E+00  0.00E+00  1.08E-05  6.69E-04  4.65E-03  0.71279
    788.   12.690  1.73E-06  1.07E-04  9.35E-06  5.81E-04  0.00E+00  0.00E+00  1.11E-05  6.88E-04  4.67E-03  0.82043
    790.   12.658  2.50E-06  1.56E-04  8.06E-06  5.03E-04  0.00E+00  0.00E+00  1.06E-05  6.59E-04  4.69E-03  0.70842
    792.   12.626  4.16E-06  2.61E-04  5.47E-06  3.43E-04  0.00E+00  0.00E+00  9.62E-06  6.04E-04  4.71E-03  0.48203
    794.   12.594  4.43E-06  2.79E-04  5.58E-06  3.52E-04  0.00E+00  0.00E+00  1.00E-05  6.31E-04  4.73E-03  0.49347
    796.   12.563  4.40E-06  2.79E-04  5.73E-06  3.63E-04  0.00E+00  0.00E+00  1.01E-05  6.42E-04  4.75E-03  0.50850
    798.   12.531  4.64E-06  2.96E-04  5.32E-06  3.39E-04  0.00E+00  0.00E+00  9.97E-06  6.35E-04  4.77E-03  0.47331
    800.   12.500  3.46E-06  2.21E-04  6.82E-06  4.36E-04  0.00E+00  0.00E+00  1.03E-05  6.58E-04  4.79E-03  0.60789
  iv          805
1                                             RADIANCE(WATTS/CM2-STER-XXX)
0  FREQ   WAVLEN    PATH THERMAL      SURFACE EMISSION    SURFACE REFLECTED     TOTAL RADIANCE   INTEGRAL    TOTAL
  (CM-1) (MICRN)    (CM-1)   (MICRN)    (CM-1)   (MICRN)    (CM-1)   (MICRN)    (CM-1)   (MICRN)    (CM-1)   TRANS

    802.   12.469  2.72E-06  1.75E-04  7.88E-06  5.07E-04  0.00E+00  0.00E+00  1.06E-05  6.81E-04  4.82E-03  0.70393
    804.   12.438  3.27E-06  2.11E-04  7.15E-06  4.62E-04  0.00E+00  0.00E+00  1.04E-05  6.73E-04  4.84E-03  0.64073
    806.   12.407  2.60E-06  1.69E-04  7.95E-06  5.17E-04  0.00E+00  0.00E+00  1.06E-05  6.86E-04  4.86E-03  0.71462
    808.   12.376  2.83E-06  1.85E-04  7.64E-06  4.99E-04  0.00E+00  0.00E+00  1.05E-05  6.83E-04  4.88E-03  0.68841
    810.   12.346  1.99E-06  1.31E-04  8.66E-06  5.68E-04  0.00E+00  0.00E+00  1.07E-05  6.99E-04  4.90E-03  0.78228
    812.   12.315  1.80E-06  1.19E-04  8.89E-06  5.86E-04  0.00E+00  0.00E+00  1.07E-05  7.05E-04  4.92E-03  0.80520
    814.   12.285  2.72E-06  1.80E-04  7.76E-06  5.14E-04  0.00E+00  0.00E+00  1.05E-05  6.94E-04  4.94E-03  0.70499
    816.   12.255  2.19E-06  1.46E-04  8.38E-06  5.58E-04  0.00E+00  0.00E+00  1.06E-05  7.03E-04  4.96E-03  0.76322
    818.   12.225  1.33E-06  8.91E-05  9.39E-06  6.28E-04  0.00E+00  0.00E+00  1.07E-05  7.17E-04  4.98E-03  0.85791
    820.   12.195  1.25E-06  8.40E-05  9.47E-06  6.36E-04  0.00E+00  0.00E+00  1.07E-05  7.20E-04  5.01E-03  0.86725
    822.   12.165  1.21E-06  8.21E-05  9.48E-06  6.41E-04  0.00E+00  0.00E+00  1.07E-05  7.23E-04  5.03E-03  0.87134
    824.   12.136  1.46E-06  9.92E-05  9.15E-06  6.21E-04  0.00E+00  0.00E+00  1.06E-05  7.20E-04  5.05E-03  0.84296
    826.   12.107  1.91E-06  1.30E-04  8.58E-06  5.86E-04  0.00E+00  0.00E+00  1.05E-05  7.16E-04  5.07E-03  0.79328
    828.   12.077  2.20E-06  1.51E-04  8.20E-06  5.62E-04  0.00E+00  0.00E+00  1.04E-05  7.13E-04  5.09E-03  0.75986
    830.   12.048  1.40E-06  9.67E-05  9.13E-06  6.29E-04  0.00E+00  0.00E+00  1.05E-05  7.26E-04  5.11E-03  0.84897
    832.   12.019  1.06E-06  7.32E-05  9.53E-06  6.59E-04  0.00E+00  0.00E+00  1.06E-05  7.33E-04  5.13E-03  0.88807
    834.   11.990  1.10E-06  7.62E-05  9.45E-06  6.57E-04  0.00E+00  0.00E+00  1.05E-05  7.33E-04  5.15E-03  0.88347
    836.   11.962  1.20E-06  8.42E-05  9.29E-06  6.49E-04  0.00E+00  0.00E+00  1.05E-05  7.34E-04  5.17E-03  0.87126
    838.   11.933  1.44E-06  1.01E-04  8.97E-06  6.30E-04  0.00E+00  0.00E+00  1.04E-05  7.31E-04  5.20E-03  0.84323
    840.   11.905  2.08E-06  1.47E-04  8.14E-06  5.75E-04  0.00E+00  0.00E+00  1.02E-05  7.22E-04  5.22E-03  0.76822
    842.   11.876  1.59E-06  1.13E-04  8.70E-06  6.17E-04  0.00E+00  0.00E+00  1.03E-05  7.29E-04  5.24E-03  0.82310
    844.   11.848  1.10E-06  7.85E-05  9.24E-06  6.58E-04  0.00E+00  0.00E+00  1.03E-05  7.37E-04  5.26E-03  0.87726
    846.   11.820  1.04E-06  7.43E-05  9.28E-06  6.64E-04  0.00E+00  0.00E+00  1.03E-05  7.39E-04  5.28E-03  0.88344
    848.   11.792  1.32E-06  9.50E-05  8.89E-06  6.40E-04  0.00E+00  0.00E+00  1.02E-05  7.35E-04  5.30E-03  0.84909
    850.   11.765  2.23E-06  1.61E-04  7.71E-06  5.57E-04  0.00E+00  0.00E+00  9.94E-06  7.18E-04  5.32E-03  0.73827
    852.   11.737  3.07E-06  2.23E-04  6.66E-06  4.83E-04  0.00E+00  0.00E+00  9.72E-06  7.06E-04  5.34E-03  0.63937
    854.   11.710  2.56E-06  1.87E-04  7.31E-06  5.33E-04  0.00E+00  0.00E+00  9.87E-06  7.20E-04  5.36E-03  0.70491
    856.   11.682  1.51E-06  1.10E-04  8.58E-06  6.28E-04  0.00E+00  0.00E+00  1.01E-05  7.39E-04  5.38E-03  0.82926
    858.   11.655  9.90E-07  7.29E-05  9.18E-06  6.76E-04  0.00E+00  0.00E+00  1.02E-05  7.49E-04  5.40E-03  0.89060
    860.   11.628  9.91E-07  7.33E-05  9.16E-06  6.77E-04  0.00E+00  0.00E+00  1.01E-05  7.50E-04  5.42E-03  0.89067
    862.   11.601  8.82E-07  6.56E-05  9.25E-06  6.87E-04  0.00E+00  0.00E+00  1.01E-05  7.53E-04  5.44E-03  0.90242
    864.   11.574  1.28E-06  9.55E-05  8.74E-06  6.52E-04  0.00E+00  0.00E+00  1.00E-05  7.48E-04  5.46E-03  0.85518
    866.   11.547  1.28E-06  9.60E-05  8.70E-06  6.53E-04  0.00E+00  0.00E+00  9.98E-06  7.49E-04  5.48E-03  0.85494
    868.   11.521  8.44E-07  6.36E-05  9.19E-06  6.93E-04  0.00E+00  0.00E+00  1.00E-05  7.56E-04  5.50E-03  0.90568
    870.   11.494  1.22E-06  9.20E-05  8.68E-06  6.57E-04  0.00E+00  0.00E+00  9.90E-06  7.49E-04  5.52E-03  0.85830
    872.   11.468  1.24E-06  9.44E-05  8.62E-06  6.56E-04  0.00E+00  0.00E+00  9.86E-06  7.50E-04  5.54E-03  0.85496
    874.   11.442  8.29E-07  6.34E-05  9.11E-06  6.96E-04  0.00E+00  0.00E+00  9.94E-06  7.59E-04  5.56E-03  0.90597
    876.   11.416  8.30E-07  6.37E-05  9.07E-06  6.96E-04  0.00E+00  0.00E+00  9.90E-06  7.60E-04  5.58E-03  0.90541
    878.   11.390  1.13E-06  8.68E-05  8.68E-06  6.69E-04  0.00E+00  0.00E+00  9.80E-06  7.56E-04  5.60E-03  0.86885
    880.   11.364  1.21E-06  9.38E-05  8.54E-06  6.61E-04  0.00E+00  0.00E+00  9.75E-06  7.55E-04  5.62E-03  0.85768
    882.   11.338  1.13E-06  8.82E-05  8.60E-06  6.69E-04  0.00E+00  0.00E+00  9.74E-06  7.57E-04  5.64E-03  0.86684
    884.   11.312  1.29E-06  1.01E-04  8.37E-06  6.54E-04  0.00E+00  0.00E+00  9.67E-06  7.55E-04  5.66E-03  0.84691
    886.   11.287  1.36E-06  1.07E-04  8.22E-06  6.46E-04  0.00E+00  0.00E+00  9.58E-06  7.52E-04  5.67E-03  0.83437
    888.   11.261  1.46E-06  1.15E-04  8.08E-06  6.37E-04  0.00E+00  0.00E+00  9.54E-06  7.52E-04  5.69E-03  0.82289
    890.   11.236  1.15E-06  9.15E-05  8.45E-06  6.69E-04  0.00E+00  0.00E+00  9.61E-06  7.61E-04  5.71E-03  0.86337
    892.   11.211  8.69E-07  6.91E-05  8.75E-06  6.97E-04  0.00E+00  0.00E+00  9.62E-06  7.66E-04  5.73E-03  0.89733
    894.   11.186  7.24E-07  5.79E-05  8.89E-06  7.11E-04  0.00E+00  0.00E+00  9.62E-06  7.69E-04  5.75E-03  0.91445
    896.   11.161  7.64E-07  6.14E-05  8.81E-06  7.08E-04  0.00E+00  0.00E+00  9.58E-06  7.69E-04  5.77E-03  0.90940
    898.   11.136  8.01E-07  6.46E-05  8.74E-06  7.05E-04  0.00E+00  0.00E+00  9.54E-06  7.69E-04  5.79E-03  0.90473
    900.   11.111  7.24E-07  5.87E-05  8.79E-06  7.12E-04  0.00E+00  0.00E+00  9.52E-06  7.71E-04  5.81E-03  0.91351
  iv          905
1                                             RADIANCE(WATTS/CM2-STER-XXX)
0  FREQ   WAVLEN    PATH THERMAL      SURFACE EMISSION    SURFACE REFLECTED     TOTAL RADIANCE   INTEGRAL    TOTAL
  (CM-1) (MICRN)    (CM-1)   (MICRN)    (CM-1)   (MICRN)    (CM-1)   (MICRN)    (CM-1)   (MICRN)    (CM-1)   TRANS

    902.   11.086  7.02E-07  5.71E-05  8.78E-06  7.15E-04  0.00E+00  0.00E+00  9.49E-06  7.72E-04  5.83E-03  0.91580
    904.   11.062  7.79E-07  6.36E-05  8.66E-06  7.08E-04  0.00E+00  0.00E+00  9.44E-06  7.71E-04  5.85E-03  0.90589
    906.   11.038  9.56E-07  7.85E-05  8.42E-06  6.91E-04  0.00E+00  0.00E+00  9.37E-06  7.69E-04  5.87E-03  0.88358
    908.   11.013  1.32E-06  1.09E-04  7.91E-06  6.52E-04  0.00E+00  0.00E+00  9.23E-06  7.61E-04  5.88E-03  0.83345
    910.   10.989  1.24E-06  1.03E-04  7.96E-06  6.60E-04  0.00E+00  0.00E+00  9.21E-06  7.62E-04  5.90E-03  0.84204
    912.   10.965  7.95E-07  6.61E-05  8.49E-06  7.06E-04  0.00E+00  0.00E+00  9.29E-06  7.72E-04  5.92E-03  0.90070
    914.   10.941  8.25E-07  6.89E-05  8.42E-06  7.03E-04  0.00E+00  0.00E+00  9.24E-06  7.72E-04  5.94E-03  0.89607
    916.   10.917  7.90E-07  6.63E-05  8.42E-06  7.07E-04  0.00E+00  0.00E+00  9.21E-06  7.73E-04  5.96E-03  0.89968
    918.   10.893  8.47E-07  7.14E-05  8.32E-06  7.01E-04  0.00E+00  0.00E+00  9.17E-06  7.73E-04  5.98E-03  0.89201
    920.   10.870  9.81E-07  8.30E-05  8.11E-06  6.87E-04  0.00E+00  0.00E+00  9.09E-06  7.70E-04  5.99E-03  0.87279
    922.   10.846  1.30E-06  1.10E-04  7.68E-06  6.53E-04  0.00E+00  0.00E+00  8.97E-06  7.63E-04  6.01E-03  0.82892
    924.   10.823  1.22E-06  1.05E-04  7.73E-06  6.60E-04  0.00E+00  0.00E+00  8.95E-06  7.64E-04  6.03E-03  0.83769
    926.   10.799  1.02E-06  8.75E-05  7.95E-06  6.82E-04  0.00E+00  0.00E+00  8.97E-06  7.69E-04  6.05E-03  0.86450
    928.   10.776  7.75E-07  6.67E-05  8.22E-06  7.08E-04  0.00E+00  0.00E+00  9.00E-06  7.75E-04  6.07E-03  0.89737
    930.   10.753  7.91E-07  6.84E-05  8.16E-06  7.06E-04  0.00E+00  0.00E+00  8.95E-06  7.75E-04  6.08E-03  0.89433
    932.   10.730  7.65E-07  6.64E-05  8.16E-06  7.09E-04  0.00E+00  0.00E+00  8.93E-06  7.75E-04  6.10E-03  0.89730
    934.   10.707  7.67E-07  6.69E-05  8.13E-06  7.09E-04  0.00E+00  0.00E+00  8.89E-06  7.76E-04  6.12E-03  0.89675
    936.   10.684  7.87E-07  6.89E-05  8.07E-06  7.07E-04  0.00E+00  0.00E+00  8.86E-06  7.76E-04  6.14E-03  0.89372
    938.   10.661  8.03E-07  7.07E-05  8.01E-06  7.05E-04  0.00E+00  0.00E+00  8.82E-06  7.76E-04  6.16E-03  0.89060
    940.   10.638  9.15E-07  8.09E-05  7.82E-06  6.91E-04  0.00E+00  0.00E+00  8.74E-06  7.72E-04  6.17E-03  0.87262
    942.   10.616  9.91E-07  8.79E-05  7.67E-06  6.81E-04  0.00E+00  0.00E+00  8.66E-06  7.69E-04  6.19E-03  0.85918
    944.   10.593  9.68E-07  8.63E-05  7.67E-06  6.84E-04  0.00E+00  0.00E+00  8.64E-06  7.70E-04  6.21E-03  0.86249
    946.   10.571  1.14E-06  1.02E-04  7.42E-06  6.64E-04  0.00E+00  0.00E+00  8.55E-06  7.65E-04  6.22E-03  0.83680
    948.   10.549  1.43E-06  1.28E-04  6.98E-06  6.27E-04  0.00E+00  0.00E+00  8.41E-06  7.56E-04  6.24E-03  0.79053
    950.   10.526  1.04E-06  9.42E-05  7.46E-06  6.73E-04  0.00E+00  0.00E+00  8.50E-06  7.67E-04  6.26E-03  0.84758
    952.   10.504  9.25E-07  8.39E-05  7.60E-06  6.89E-04  0.00E+00  0.00E+00  8.52E-06  7.73E-04  6.28E-03  0.86708
    954.   10.482  1.09E-06  9.94E-05  7.36E-06  6.69E-04  0.00E+00  0.00E+00  8.45E-06  7.69E-04  6.29E-03  0.84243
    956.   10.460  9.94E-07  9.09E-05  7.44E-06  6.80E-04  0.00E+00  0.00E+00  8.44E-06  7.71E-04  6.31E-03  0.85565
    958.   10.438  7.62E-07  6.99E-05  7.73E-06  7.09E-04  0.00E+00  0.00E+00  8.49E-06  7.79E-04  6.33E-03  0.89151
    960.   10.417  6.86E-07  6.32E-05  7.81E-06  7.20E-04  0.00E+00  0.00E+00  8.50E-06  7.83E-04  6.34E-03  0.90513
    962.   10.395  5.99E-07  5.55E-05  7.88E-06  7.29E-04  0.00E+00  0.00E+00  8.48E-06  7.85E-04  6.36E-03  0.91633
    964.   10.373  6.74E-07  6.27E-05  7.72E-06  7.18E-04  0.00E+00  0.00E+00  8.40E-06  7.80E-04  6.38E-03  0.90126
    966.   10.352  8.70E-07  8.12E-05  7.42E-06  6.93E-04  0.00E+00  0.00E+00  8.29E-06  7.74E-04  6.39E-03  0.86968
    968.   10.331  9.01E-07  8.44E-05  7.33E-06  6.87E-04  0.00E+00  0.00E+00  8.23E-06  7.71E-04  6.41E-03  0.86191
    970.   10.309  1.00E-06  9.43E-05  7.15E-06  6.73E-04  0.00E+00  0.00E+00  8.16E-06  7.67E-04  6.43E-03  0.84471
    972.   10.288  1.26E-06  1.19E-04  6.78E-06  6.40E-04  0.00E+00  0.00E+00  8.04E-06  7.60E-04  6.44E-03  0.80361
    974.   10.267  1.21E-06  1.15E-04  6.82E-06  6.47E-04  0.00E+00  0.00E+00  8.03E-06  7.62E-04  6.46E-03  0.81206
    976.   10.246  1.28E-06  1.22E-04  6.68E-06  6.36E-04  0.00E+00  0.00E+00  7.96E-06  7.58E-04  6.47E-03  0.79800
    978.   10.225  9.95E-07  9.52E-05  7.01E-06  6.70E-04  0.00E+00  0.00E+00  8.01E-06  7.66E-04  6.49E-03  0.84095
    980.   10.204  7.84E-07  7.53E-05  7.24E-06  6.96E-04  0.00E+00  0.00E+00  8.03E-06  7.71E-04  6.51E-03  0.87208
    982.   10.183  7.98E-07  7.69E-05  7.18E-06  6.92E-04  0.00E+00  0.00E+00  7.97E-06  7.69E-04  6.52E-03  0.86764
    984.   10.163  7.22E-07  6.99E-05  7.24E-06  7.01E-04  0.00E+00  0.00E+00  7.96E-06  7.71E-04  6.54E-03  0.87844
    986.   10.142  5.89E-07  5.72E-05  7.34E-06  7.14E-04  0.00E+00  0.00E+00  7.93E-06  7.71E-04  6.55E-03  0.89490
    988.   10.121  5.67E-07  5.54E-05  7.29E-06  7.11E-04  0.00E+00  0.00E+00  7.85E-06  7.67E-04  6.57E-03  0.89129
    990.   10.101  5.70E-07  5.59E-05  7.19E-06  7.05E-04  0.00E+00  0.00E+00  7.76E-06  7.61E-04  6.59E-03  0.88370
    992.   10.081  5.66E-07  5.57E-05  7.08E-06  6.96E-04  0.00E+00  0.00E+00  7.64E-06  7.52E-04  6.60E-03  0.87282
    994.   10.060  5.80E-07  5.73E-05  6.94E-06  6.86E-04  0.00E+00  0.00E+00  7.52E-06  7.43E-04  6.62E-03  0.85972
    996.   10.040  6.19E-07  6.14E-05  6.74E-06  6.69E-04  0.00E+00  0.00E+00  7.36E-06  7.30E-04  6.63E-03  0.83787
    998.   10.020  7.77E-07  7.74E-05  6.37E-06  6.34E-04  0.00E+00  0.00E+00  7.15E-06  7.12E-04  6.64E-03  0.79503
   1000.   10.000  9.03E-07  9.03E-05  6.05E-06  6.05E-04  0.00E+00  0.00E+00  6.95E-06  6.95E-04  6.66E-03  0.75792
  iv         1005
1                                             RADIANCE(WATTS/CM2-STER-XXX)
0  FREQ   WAVLEN    PATH THERMAL      SURFACE EMISSION    SURFACE REFLECTED     TOTAL RADIANCE   INTEGRAL    TOTAL
  (CM-1) (MICRN)    (CM-1)   (MICRN)    (CM-1)   (MICRN)    (CM-1)   (MICRN)    (CM-1)   (MICRN)    (CM-1)   TRANS

   1002.    9.980  8.72E-07  8.75E-05  5.86E-06  5.88E-04  0.00E+00  0.00E+00  6.73E-06  6.76E-04  6.67E-03  0.73702
   1004.    9.960  9.55E-07  9.63E-05  5.56E-06  5.60E-04  0.00E+00  0.00E+00  6.51E-06  6.56E-04  6.68E-03  0.70192
   1006.    9.940  9.74E-07  9.86E-05  5.26E-06  5.32E-04  0.00E+00  0.00E+00  6.23E-06  6.31E-04  6.70E-03  0.66702
   1008.    9.921  1.02E-06  1.04E-04  5.04E-06  5.12E-04  0.00E+00  0.00E+00  6.07E-06  6.16E-04  6.71E-03  0.64220
   1010.    9.901  1.26E-06  1.29E-04  4.52E-06  4.62E-04  0.00E+00  0.00E+00  5.79E-06  5.91E-04  6.72E-03  0.57866
   1012.    9.881  1.33E-06  1.36E-04  4.16E-06  4.26E-04  0.00E+00  0.00E+00  5.49E-06  5.62E-04  6.73E-03  0.53408
   1014.    9.862  1.41E-06  1.45E-04  3.86E-06  3.97E-04  0.00E+00  0.00E+00  5.27E-06  5.41E-04  6.74E-03  0.49777
   1016.    9.843  1.37E-06  1.42E-04  3.74E-06  3.86E-04  0.00E+00  0.00E+00  5.11E-06  5.28E-04  6.75E-03  0.48431
   1018.    9.823  1.44E-06  1.49E-04  3.39E-06  3.51E-04  0.00E+00  0.00E+00  4.83E-06  5.01E-04  6.76E-03  0.44069
   1020.    9.804  1.38E-06  1.43E-04  3.27E-06  3.40E-04  0.00E+00  0.00E+00  4.64E-06  4.83E-04  6.77E-03  0.42652
   1022.    9.785  1.36E-06  1.43E-04  3.12E-06  3.25E-04  0.00E+00  0.00E+00  4.48E-06  4.68E-04  6.78E-03  0.40848
   1024.    9.766  1.37E-06  1.43E-04  3.01E-06  3.16E-04  0.00E+00  0.00E+00  4.38E-06  4.59E-04  6.79E-03  0.39663
   1026.    9.747  1.39E-06  1.46E-04  2.98E-06  3.13E-04  0.00E+00  0.00E+00  4.36E-06  4.59E-04  6.80E-03  0.39376
   1028.    9.728  1.57E-06  1.66E-04  2.67E-06  2.82E-04  0.00E+00  0.00E+00  4.24E-06  4.48E-04  6.81E-03  0.35453
   1030.    9.709  1.57E-06  1.67E-04  2.57E-06  2.73E-04  0.00E+00  0.00E+00  4.14E-06  4.40E-04  6.81E-03  0.34280
   1032.    9.690  1.42E-06  1.51E-04  2.78E-06  2.96E-04  0.00E+00  0.00E+00  4.20E-06  4.47E-04  6.82E-03  0.37195
   1034.    9.671  1.39E-06  1.48E-04  2.74E-06  2.93E-04  0.00E+00  0.00E+00  4.13E-06  4.41E-04  6.83E-03  0.36833
   1036.    9.653  1.44E-06  1.54E-04  2.51E-06  2.70E-04  0.00E+00  0.00E+00  3.95E-06  4.24E-04  6.84E-03  0.33952
   1038.    9.634  1.54E-06  1.66E-04  2.20E-06  2.37E-04  0.00E+00  0.00E+00  3.74E-06  4.02E-04  6.85E-03  0.29809
   1040.    9.615  1.54E-06  1.66E-04  2.12E-06  2.30E-04  0.00E+00  0.00E+00  3.66E-06  3.96E-04  6.85E-03  0.28931
   1042.    9.597  1.22E-06  1.32E-04  3.56E-06  3.87E-04  0.00E+00  0.00E+00  4.78E-06  5.19E-04  6.86E-03  0.48746
   1044.    9.579  9.94E-07  1.08E-04  4.54E-06  4.95E-04  0.00E+00  0.00E+00  5.53E-06  6.03E-04  6.87E-03  0.62328
   1046.    9.560  1.20E-06  1.31E-04  3.37E-06  3.68E-04  0.00E+00  0.00E+00  4.57E-06  5.00E-04  6.88E-03  0.46424
   1048.    9.542  1.48E-06  1.63E-04  2.28E-06  2.50E-04  0.00E+00  0.00E+00  3.76E-06  4.13E-04  6.89E-03  0.31570
   1050.    9.524  1.63E-06  1.80E-04  1.83E-06  2.01E-04  0.00E+00  0.00E+00  3.46E-06  3.81E-04  6.90E-03  0.25420
   1052.    9.506  1.60E-06  1.78E-04  1.72E-06  1.91E-04  0.00E+00  0.00E+00  3.33E-06  3.68E-04  6.91E-03  0.24078
   1054.    9.488  1.59E-06  1.77E-04  1.65E-06  1.83E-04  0.00E+00  0.00E+00  3.25E-06  3.61E-04  6.91E-03  0.23182
   1056.    9.470  1.62E-06  1.81E-04  1.63E-06  1.82E-04  0.00E+00  0.00E+00  3.25E-06  3.63E-04  6.92E-03  0.22973
   1058.    9.452  1.54E-06  1.72E-04  1.99E-06  2.22E-04  0.00E+00  0.00E+00  3.53E-06  3.95E-04  6.93E-03  0.28145
   1060.    9.434  1.47E-06  1.65E-04  2.41E-06  2.70E-04  0.00E+00  0.00E+00  3.87E-06  4.35E-04  6.93E-03  0.34218
   1062.    9.416  1.34E-06  1.51E-04  2.91E-06  3.28E-04  0.00E+00  0.00E+00  4.25E-06  4.79E-04  6.94E-03  0.41605
   1064.    9.398  1.26E-06  1.43E-04  3.57E-06  4.04E-04  0.00E+00  0.00E+00  4.83E-06  5.46E-04  6.95E-03  0.51176
   1066.    9.381  1.43E-06  1.63E-04  3.92E-06  4.45E-04  0.00E+00  0.00E+00  5.35E-06  6.08E-04  6.96E-03  0.56500
   1068.    9.363  1.09E-06  1.24E-04  4.74E-06  5.41E-04  0.00E+00  0.00E+00  5.83E-06  6.65E-04  6.97E-03  0.68673
   1070.    9.346  8.08E-07  9.25E-05  5.39E-06  6.17E-04  0.00E+00  0.00E+00  6.20E-06  7.09E-04  6.99E-03  0.78366
   1072.    9.328  9.81E-07  1.13E-04  5.33E-06  6.12E-04  0.00E+00  0.00E+00  6.31E-06  7.25E-04  7.00E-03  0.77800
   1074.    9.311  1.35E-06  1.56E-04  4.82E-06  5.56E-04  0.00E+00  0.00E+00  6.17E-06  7.12E-04  7.01E-03  0.70695
   1076.    9.294  1.09E-06  1.26E-04  5.10E-06  5.90E-04  0.00E+00  0.00E+00  6.19E-06  7.16E-04  7.02E-03  0.75122
   1078.    9.276  7.92E-07  9.21E-05  5.51E-06  6.41E-04  0.00E+00  0.00E+00  6.31E-06  7.33E-04  7.04E-03  0.81593
   1080.    9.259  8.68E-07  1.01E-04  5.33E-06  6.21E-04  0.00E+00  0.00E+00  6.19E-06  7.22E-04  7.05E-03  0.79162
   1082.    9.242  8.14E-07  9.53E-05  5.39E-06  6.31E-04  0.00E+00  0.00E+00  6.20E-06  7.26E-04  7.06E-03  0.80448
   1084.    9.225  7.03E-07  8.26E-05  5.59E-06  6.57E-04  0.00E+00  0.00E+00  6.29E-06  7.39E-04  7.07E-03  0.83836
   1086.    9.208  7.12E-07  8.40E-05  5.53E-06  6.52E-04  0.00E+00  0.00E+00  6.24E-06  7.36E-04  7.09E-03  0.83327
   1088.    9.191  5.98E-07  7.08E-05  5.65E-06  6.69E-04  0.00E+00  0.00E+00  6.25E-06  7.39E-04  7.10E-03  0.85491
   1090.    9.174  8.28E-07  9.84E-05  5.37E-06  6.37E-04  0.00E+00  0.00E+00  6.19E-06  7.36E-04  7.11E-03  0.81573
   1092.    9.158  7.89E-07  9.41E-05  5.41E-06  6.45E-04  0.00E+00  0.00E+00  6.20E-06  7.39E-04  7.12E-03  0.82666
   1094.    9.141  3.74E-07  4.48E-05  5.90E-06  7.06E-04  0.00E+00  0.00E+00  6.27E-06  7.51E-04  7.14E-03  0.90483
   1096.    9.124  3.12E-07  3.74E-05  5.97E-06  7.17E-04  0.00E+00  0.00E+00  6.28E-06  7.54E-04  7.15E-03  0.91984
   1098.    9.107  4.91E-07  5.92E-05  5.72E-06  6.89E-04  0.00E+00  0.00E+00  6.21E-06  7.49E-04  7.16E-03  0.88521
   1100.    9.091  1.12E-06  1.36E-04  4.86E-06  5.88E-04  0.00E+00  0.00E+00  5.98E-06  7.23E-04  7.17E-03  0.75520
  iv         1105
1                                             RADIANCE(WATTS/CM2-STER-XXX)
0  FREQ   WAVLEN    PATH THERMAL      SURFACE EMISSION    SURFACE REFLECTED     TOTAL RADIANCE   INTEGRAL    TOTAL
  (CM-1) (MICRN)    (CM-1)   (MICRN)    (CM-1)   (MICRN)    (CM-1)   (MICRN)    (CM-1)   (MICRN)    (CM-1)   TRANS

   1102.    9.074  8.56E-07  1.04E-04  5.18E-06  6.28E-04  0.00E+00  0.00E+00  6.03E-06  7.32E-04  7.18E-03  0.80894
   1104.    9.058  3.88E-07  4.72E-05  5.78E-06  7.04E-04  0.00E+00  0.00E+00  6.17E-06  7.51E-04  7.20E-03  0.90704
   1106.    9.042  8.84E-07  1.08E-04  5.10E-06  6.24E-04  0.00E+00  0.00E+00  5.99E-06  7.32E-04  7.21E-03  0.80446
   1108.    9.025  8.19E-07  1.01E-04  5.15E-06  6.33E-04  0.00E+00  0.00E+00  5.97E-06  7.33E-04  7.22E-03  0.81676
   1110.    9.009  6.12E-07  7.55E-05  5.39E-06  6.64E-04  0.00E+00  0.00E+00  6.01E-06  7.40E-04  7.23E-03  0.85814
   1112.    8.993  9.88E-07  1.22E-04  4.83E-06  5.98E-04  0.00E+00  0.00E+00  5.82E-06  7.20E-04  7.24E-03  0.77275
   1114.    8.977  4.99E-07  6.19E-05  5.45E-06  6.76E-04  0.00E+00  0.00E+00  5.95E-06  7.38E-04  7.26E-03  0.87544
   1116.    8.961  3.20E-07  3.99E-05  5.66E-06  7.05E-04  0.00E+00  0.00E+00  5.98E-06  7.45E-04  7.27E-03  0.91336
   1118.    8.945  4.24E-07  5.30E-05  5.48E-06  6.85E-04  0.00E+00  0.00E+00  5.90E-06  7.38E-04  7.28E-03  0.88821
   1120.    8.929  9.67E-07  1.21E-04  4.70E-06  5.90E-04  0.00E+00  0.00E+00  5.67E-06  7.11E-04  7.29E-03  0.76526
   1122.    8.913  9.80E-07  1.23E-04  4.65E-06  5.85E-04  0.00E+00  0.00E+00  5.63E-06  7.08E-04  7.30E-03  0.76064
   1124.    8.897  3.52E-07  4.44E-05  5.45E-06  6.89E-04  0.00E+00  0.00E+00  5.80E-06  7.33E-04  7.31E-03  0.89638
   1126.    8.881  2.74E-07  3.47E-05  5.53E-06  7.01E-04  0.00E+00  0.00E+00  5.80E-06  7.35E-04  7.33E-03  0.91277
   1128.    8.865  2.61E-07  3.32E-05  5.53E-06  7.04E-04  0.00E+00  0.00E+00  5.79E-06  7.37E-04  7.34E-03  0.91848
   1130.    8.850  2.83E-07  3.61E-05  5.49E-06  7.01E-04  0.00E+00  0.00E+00  5.77E-06  7.37E-04  7.35E-03  0.91501
   1132.    8.834  3.43E-07  4.40E-05  5.41E-06  6.93E-04  0.00E+00  0.00E+00  5.75E-06  7.37E-04  7.36E-03  0.90595
   1134.    8.818  1.06E-06  1.37E-04  4.41E-06  5.68E-04  0.00E+00  0.00E+00  5.48E-06  7.04E-04  7.37E-03  0.74270
   1136.    8.803  2.10E-06  2.72E-04  2.86E-06  3.69E-04  0.00E+00  0.00E+00  4.96E-06  6.41E-04  7.38E-03  0.48362
   1138.    8.787  1.27E-06  1.64E-04  4.07E-06  5.27E-04  0.00E+00  0.00E+00  5.34E-06  6.91E-04  7.39E-03  0.69185
   1140.    8.772  3.84E-07  4.99E-05  5.31E-06  6.90E-04  0.00E+00  0.00E+00  5.69E-06  7.40E-04  7.40E-03  0.90629
   1142.    8.757  3.19E-07  4.17E-05  5.36E-06  6.99E-04  0.00E+00  0.00E+00  5.68E-06  7.40E-04  7.41E-03  0.91922
   1144.    8.741  2.60E-07  3.41E-05  5.40E-06  7.06E-04  0.00E+00  0.00E+00  5.66E-06  7.40E-04  7.43E-03  0.93047
   1146.    8.726  2.58E-07  3.38E-05  5.38E-06  7.06E-04  0.00E+00  0.00E+00  5.63E-06  7.40E-04  7.44E-03  0.93128
   1148.    8.711  7.62E-07  1.00E-04  4.66E-06  6.15E-04  0.00E+00  0.00E+00  5.43E-06  7.15E-04  7.45E-03  0.81143
   1150.    8.696  1.14E-06  1.51E-04  4.15E-06  5.48E-04  0.00E+00  0.00E+00  5.29E-06  7.00E-04  7.46E-03  0.72491
   1152.    8.681  1.20E-06  1.60E-04  4.05E-06  5.38E-04  0.00E+00  0.00E+00  5.26E-06  6.98E-04  7.47E-03  0.71258
   1154.    8.666  6.26E-07  8.33E-05  4.80E-06  6.40E-04  0.00E+00  0.00E+00  5.43E-06  7.23E-04  7.48E-03  0.84832
   1156.    8.651  2.54E-07  3.40E-05  5.25E-06  7.02E-04  0.00E+00  0.00E+00  5.51E-06  7.36E-04  7.49E-03  0.93236
   1158.    8.636  2.30E-07  3.08E-05  5.26E-06  7.05E-04  0.00E+00  0.00E+00  5.49E-06  7.36E-04  7.50E-03  0.93779
   1160.    8.621  2.48E-07  3.34E-05  5.21E-06  7.01E-04  0.00E+00  0.00E+00  5.46E-06  7.34E-04  7.51E-03  0.93321
   1162.    8.606  3.04E-07  4.11E-05  5.12E-06  6.91E-04  0.00E+00  0.00E+00  5.43E-06  7.33E-04  7.52E-03  0.92186
   1164.    8.591  1.02E-06  1.39E-04  4.10E-06  5.56E-04  0.00E+00  0.00E+00  5.12E-06  6.94E-04  7.53E-03  0.74152
   1166.    8.576  1.30E-06  1.76E-04  3.71E-06  5.05E-04  0.00E+00  0.00E+00  5.01E-06  6.81E-04  7.54E-03  0.67526
   1168.    8.562  4.87E-07  6.65E-05  4.82E-06  6.58E-04  0.00E+00  0.00E+00  5.31E-06  7.24E-04  7.55E-03  0.88065
   1170.    8.547  3.82E-07  5.23E-05  4.94E-06  6.76E-04  0.00E+00  0.00E+00  5.32E-06  7.28E-04  7.57E-03  0.90668
   1172.    8.532  8.69E-07  1.19E-04  4.28E-06  5.88E-04  0.00E+00  0.00E+00  5.15E-06  7.08E-04  7.58E-03  0.78962
   1174.    8.518  2.08E-06  2.86E-04  2.44E-06  3.37E-04  0.00E+00  0.00E+00  4.52E-06  6.23E-04  7.58E-03  0.45269
   1176.    8.503  1.52E-06  2.10E-04  3.18E-06  4.40E-04  0.00E+00  0.00E+00  4.70E-06  6.50E-04  7.59E-03  0.59312
   1178.    8.489  5.38E-07  7.46E-05  4.66E-06  6.46E-04  0.00E+00  0.00E+00  5.19E-06  7.21E-04  7.60E-03  0.87179
   1180.    8.475  4.74E-07  6.61E-05  4.70E-06  6.54E-04  0.00E+00  0.00E+00  5.17E-06  7.20E-04  7.61E-03  0.88404
   1182.    8.460  4.24E-07  5.92E-05  4.74E-06  6.63E-04  0.00E+00  0.00E+00  5.17E-06  7.22E-04  7.63E-03  0.89659
   1184.    8.446  5.16E-07  7.23E-05  4.62E-06  6.47E-04  0.00E+00  0.00E+00  5.13E-06  7.20E-04  7.64E-03  0.87732
   1186.    8.432  1.43E-06  2.01E-04  3.22E-06  4.53E-04  0.00E+00  0.00E+00  4.65E-06  6.54E-04  7.64E-03  0.61476
   1188.    8.418  1.75E-06  2.47E-04  2.79E-06  3.93E-04  0.00E+00  0.00E+00  4.53E-06  6.40E-04  7.65E-03  0.53506
   1190.    8.403  8.02E-07  1.14E-04  4.16E-06  5.90E-04  0.00E+00  0.00E+00  4.97E-06  7.03E-04  7.66E-03  0.80299
   1192.    8.389  5.05E-07  7.17E-05  4.50E-06  6.40E-04  0.00E+00  0.00E+00  5.01E-06  7.12E-04  7.67E-03  0.87304
   1194.    8.375  4.60E-07  6.55E-05  4.55E-06  6.49E-04  0.00E+00  0.00E+00  5.01E-06  7.14E-04  7.68E-03  0.88603
   1196.    8.361  7.52E-07  1.08E-04  4.08E-06  5.84E-04  0.00E+00  0.00E+00  4.84E-06  6.92E-04  7.69E-03  0.79882
   1198.    8.347  1.50E-06  2.16E-04  2.94E-06  4.23E-04  0.00E+00  0.00E+00  4.45E-06  6.39E-04  7.70E-03  0.57912
   1200.    8.333  9.81E-07  1.41E-04  3.74E-06  5.38E-04  0.00E+00  0.00E+00  4.72E-06  6.79E-04  7.71E-03  0.73933
  iv         1205
1                                             RADIANCE(WATTS/CM2-STER-XXX)
0  FREQ   WAVLEN    PATH THERMAL      SURFACE EMISSION    SURFACE REFLECTED     TOTAL RADIANCE   INTEGRAL    TOTAL
  (CM-1) (MICRN)    (CM-1)   (MICRN)    (CM-1)   (MICRN)    (CM-1)   (MICRN)    (CM-1)   (MICRN)    (CM-1)   TRANS

   1202.    8.319  3.53E-07  5.10E-05  4.57E-06  6.60E-04  0.00E+00  0.00E+00  4.92E-06  7.11E-04  7.72E-03  0.90799
   1204.    8.306  3.76E-07  5.45E-05  4.52E-06  6.55E-04  0.00E+00  0.00E+00  4.89E-06  7.09E-04  7.73E-03  0.90186
   1206.    8.292  5.81E-07  8.45E-05  4.24E-06  6.16E-04  0.00E+00  0.00E+00  4.82E-06  7.01E-04  7.74E-03  0.85063
   1208.    8.278  5.99E-07  8.74E-05  4.20E-06  6.13E-04  0.00E+00  0.00E+00  4.80E-06  7.00E-04  7.75E-03  0.84672
   1210.    8.264  1.32E-06  1.93E-04  3.00E-06  4.40E-04  0.00E+00  0.00E+00  4.32E-06  6.32E-04  7.76E-03  0.60829
   1212.    8.251  2.23E-06  3.28E-04  1.57E-06  2.30E-04  0.00E+00  0.00E+00  3.80E-06  5.58E-04  7.77E-03  0.31958
   1214.    8.237  1.54E-06  2.28E-04  2.79E-06  4.11E-04  0.00E+00  0.00E+00  4.33E-06  6.38E-04  7.78E-03  0.57124
   1216.    8.224  8.91E-07  1.32E-04  3.68E-06  5.45E-04  0.00E+00  0.00E+00  4.58E-06  6.77E-04  7.78E-03  0.75849
   1218.    8.210  1.42E-06  2.10E-04  2.82E-06  4.18E-04  0.00E+00  0.00E+00  4.23E-06  6.28E-04  7.79E-03  0.58200
   1220.    8.197  1.56E-06  2.32E-04  2.53E-06  3.76E-04  0.00E+00  0.00E+00  4.08E-06  6.08E-04  7.80E-03  0.52582
   1222.    8.183  1.21E-06  1.81E-04  3.08E-06  4.60E-04  0.00E+00  0.00E+00  4.29E-06  6.41E-04  7.81E-03  0.64390
   1224.    8.170  1.76E-06  2.63E-04  2.12E-06  3.18E-04  0.00E+00  0.00E+00  3.88E-06  5.81E-04  7.82E-03  0.44513
   1226.    8.157  1.95E-06  2.93E-04  1.81E-06  2.72E-04  0.00E+00  0.00E+00  3.76E-06  5.65E-04  7.83E-03  0.38259
   1228.    8.143  1.06E-06  1.60E-04  3.17E-06  4.78E-04  0.00E+00  0.00E+00  4.23E-06  6.38E-04  7.83E-03  0.67259
   1230.    8.130  6.91E-07  1.05E-04  3.59E-06  5.42E-04  0.00E+00  0.00E+00  4.28E-06  6.47E-04  7.84E-03  0.76501
   1232.    8.117  4.33E-07  6.58E-05  4.03E-06  6.11E-04  0.00E+00  0.00E+00  4.46E-06  6.77E-04  7.85E-03  0.86358
   1234.    8.104  4.85E-07  7.38E-05  3.91E-06  5.96E-04  0.00E+00  0.00E+00  4.40E-06  6.69E-04  7.86E-03  0.84275
   1236.    8.091  9.40E-07  1.44E-04  3.05E-06  4.66E-04  0.00E+00  0.00E+00  3.99E-06  6.10E-04  7.87E-03  0.66064
   1238.    8.078  1.29E-06  1.98E-04  2.56E-06  3.92E-04  0.00E+00  0.00E+00  3.85E-06  5.91E-04  7.88E-03  0.55740
   1240.    8.065  1.30E-06  1.99E-04  2.62E-06  4.03E-04  0.00E+00  0.00E+00  3.92E-06  6.03E-04  7.88E-03  0.57434
   1242.    8.052  1.52E-06  2.34E-04  2.09E-06  3.22E-04  0.00E+00  0.00E+00  3.61E-06  5.56E-04  7.89E-03  0.45913
   1244.    8.039  2.08E-06  3.23E-04  1.00E-06  1.55E-04  0.00E+00  0.00E+00  3.09E-06  4.78E-04  7.90E-03  0.22203
   1246.    8.026  1.62E-06  2.51E-04  1.70E-06  2.65E-04  0.00E+00  0.00E+00  3.32E-06  5.16E-04  7.90E-03  0.37949
   1248.    8.013  1.19E-06  1.86E-04  2.34E-06  3.65E-04  0.00E+00  0.00E+00  3.53E-06  5.50E-04  7.91E-03  0.52354
   1250.    8.000  1.19E-06  1.86E-04  2.49E-06  3.89E-04  0.00E+00  0.00E+00  3.68E-06  5.75E-04  7.92E-03  0.55992
   1252.    7.987  1.41E-06  2.21E-04  2.17E-06  3.40E-04  0.00E+00  0.00E+00  3.58E-06  5.61E-04  7.93E-03  0.48921
   1254.    7.974  1.39E-06  2.19E-04  1.94E-06  3.05E-04  0.00E+00  0.00E+00  3.33E-06  5.24E-04  7.93E-03  0.44077
   1256.    7.962  1.33E-06  2.09E-04  2.28E-06  3.60E-04  0.00E+00  0.00E+00  3.61E-06  5.69E-04  7.94E-03  0.52027
   1258.    7.949  1.78E-06  2.82E-04  1.54E-06  2.44E-04  0.00E+00  0.00E+00  3.32E-06  5.25E-04  7.95E-03  0.35280
   1260.    7.937  1.97E-06  3.13E-04  4.40E-07  6.99E-05  0.00E+00  0.00E+00  2.41E-06  3.83E-04  7.95E-03  0.10126
   1262.    7.924  1.84E-06  2.93E-04  7.83E-07  1.25E-04  0.00E+00  0.00E+00  2.62E-06  4.17E-04  7.96E-03  0.18184
   1264.    7.911  1.96E-06  3.13E-04  9.51E-07  1.52E-04  0.00E+00  0.00E+00  2.91E-06  4.65E-04  7.96E-03  0.22136
   1266.    7.899  2.18E-06  3.50E-04  3.81E-07  6.10E-05  0.00E+00  0.00E+00  2.56E-06  4.11E-04  7.97E-03  0.08896
   1268.    7.886  2.06E-06  3.31E-04  9.81E-08  1.58E-05  0.00E+00  0.00E+00  2.16E-06  3.47E-04  7.97E-03  0.02304
   1270.    7.874  1.93E-06  3.11E-04  2.87E-08  4.62E-06  0.00E+00  0.00E+00  1.96E-06  3.16E-04  7.97E-03  0.00678
   1272.    7.862  1.92E-06  3.11E-04  2.96E-07  4.78E-05  0.00E+00  0.00E+00  2.22E-06  3.59E-04  7.98E-03  0.07061
   1274.    7.849  1.77E-06  2.87E-04  1.19E-06  1.93E-04  0.00E+00  0.00E+00  2.96E-06  4.80E-04  7.99E-03  0.28472
   1276.    7.837  1.25E-06  2.04E-04  1.86E-06  3.02E-04  0.00E+00  0.00E+00  3.11E-06  5.06E-04  7.99E-03  0.44692
   1278.    7.825  1.18E-06  1.93E-04  2.18E-06  3.57E-04  0.00E+00  0.00E+00  3.36E-06  5.49E-04  8.00E-03  0.52774
   1280.    7.813  1.77E-06  2.90E-04  1.35E-06  2.21E-04  0.00E+00  0.00E+00  3.12E-06  5.11E-04  8.00E-03  0.32784
   1282.    7.800  1.79E-06  2.94E-04  7.75E-07  1.27E-04  0.00E+00  0.00E+00  2.56E-06  4.21E-04  8.01E-03  0.18942
   1284.    7.788  1.80E-06  2.97E-04  8.78E-07  1.45E-04  0.00E+00  0.00E+00  2.68E-06  4.42E-04  8.01E-03  0.21569
   1286.    7.776  1.95E-06  3.23E-04  6.97E-07  1.15E-04  0.00E+00  0.00E+00  2.65E-06  4.39E-04  8.02E-03  0.17192
   1288.    7.764  1.79E-06  2.98E-04  2.23E-07  3.70E-05  0.00E+00  0.00E+00  2.02E-06  3.35E-04  8.02E-03  0.05540
   1290.    7.752  1.98E-06  3.29E-04  5.49E-07  9.13E-05  0.00E+00  0.00E+00  2.53E-06  4.21E-04  8.03E-03  0.13728
   1292.    7.740  1.84E-06  3.06E-04  1.00E-06  1.67E-04  0.00E+00  0.00E+00  2.84E-06  4.74E-04  8.03E-03  0.25166
   1294.    7.728  1.61E-06  2.70E-04  8.96E-07  1.50E-04  0.00E+00  0.00E+00  2.51E-06  4.20E-04  8.04E-03  0.22582
   1296.    7.716  1.73E-06  2.91E-04  4.10E-07  6.89E-05  0.00E+00  0.00E+00  2.14E-06  3.60E-04  8.04E-03  0.10384
   1298.    7.704  1.49E-06  2.52E-04  7.56E-07  1.27E-04  0.00E+00  0.00E+00  2.25E-06  3.79E-04  8.05E-03  0.19309
   1300.    7.692  1.29E-06  2.18E-04  9.94E-07  1.68E-04  0.00E+00  0.00E+00  2.28E-06  3.86E-04  8.05E-03  0.25468
  iv         1305
1                                             RADIANCE(WATTS/CM2-STER-XXX)
0  FREQ   WAVLEN    PATH THERMAL      SURFACE EMISSION    SURFACE REFLECTED     TOTAL RADIANCE   INTEGRAL    TOTAL
  (CM-1) (MICRN)    (CM-1)   (MICRN)    (CM-1)   (MICRN)    (CM-1)   (MICRN)    (CM-1)   (MICRN)    (CM-1)   TRANS

   1302.    7.680  1.22E-06  2.07E-04  4.88E-07  8.28E-05  0.00E+00  0.00E+00  1.71E-06  2.90E-04  8.06E-03  0.12572
   1304.    7.669  9.87E-07  1.68E-04  1.41E-07  2.40E-05  0.00E+00  0.00E+00  1.13E-06  1.92E-04  8.06E-03  0.03643
   1306.    7.657  1.17E-06  2.00E-04  1.00E-07  1.71E-05  0.00E+00  0.00E+00  1.27E-06  2.17E-04  8.06E-03  0.02620
   1308.    7.645  1.89E-06  3.24E-04  1.78E-07  3.04E-05  0.00E+00  0.00E+00  2.07E-06  3.54E-04  8.07E-03  0.04667
   1310.    7.634  2.10E-06  3.60E-04  2.99E-07  5.14E-05  0.00E+00  0.00E+00  2.39E-06  4.11E-04  8.07E-03  0.07891
   1312.    7.622  1.75E-06  3.00E-04  1.35E-07  2.32E-05  0.00E+00  0.00E+00  1.88E-06  3.24E-04  8.07E-03  0.03560
   1314.    7.610  1.62E-06  2.79E-04  8.97E-10  1.55E-07  0.00E+00  0.00E+00  1.62E-06  2.79E-04  8.08E-03  0.00024
   1316.    7.599  1.63E-06  2.82E-04  7.70E-10  1.33E-07  0.00E+00  0.00E+00  1.63E-06  2.82E-04  8.08E-03  0.00021
   1318.    7.587  1.42E-06  2.47E-04  1.46E-10  2.53E-08  0.00E+00  0.00E+00  1.42E-06  2.47E-04  8.08E-03  0.00004
   1320.    7.576  1.46E-06  2.55E-04  1.28E-08  2.23E-06  0.00E+00  0.00E+00  1.48E-06  2.57E-04  8.09E-03  0.00349
   1322.    7.564  1.74E-06  3.05E-04  8.79E-08  1.54E-05  0.00E+00  0.00E+00  1.83E-06  3.20E-04  8.09E-03  0.02397
   1324.    7.553  2.01E-06  3.53E-04  3.59E-07  6.29E-05  0.00E+00  0.00E+00  2.37E-06  4.16E-04  8.09E-03  0.09843
   1326.    7.541  1.85E-06  3.25E-04  4.22E-07  7.43E-05  0.00E+00  0.00E+00  2.27E-06  4.00E-04  8.10E-03  0.11612
   1328.    7.530  1.83E-06  3.23E-04  2.01E-07  3.54E-05  0.00E+00  0.00E+00  2.03E-06  3.59E-04  8.10E-03  0.05545
   1330.    7.519  1.90E-06  3.37E-04  3.31E-07  5.85E-05  0.00E+00  0.00E+00  2.23E-06  3.95E-04  8.11E-03  0.09219
   1332.    7.508  1.60E-06  2.84E-04  3.03E-07  5.37E-05  0.00E+00  0.00E+00  1.90E-06  3.38E-04  8.11E-03  0.08449
   1334.    7.496  1.79E-06  3.18E-04  1.15E-07  2.04E-05  0.00E+00  0.00E+00  1.90E-06  3.38E-04  8.12E-03  0.03223
   1336.    7.485  1.57E-06  2.81E-04  4.34E-08  7.74E-06  0.00E+00  0.00E+00  1.62E-06  2.89E-04  8.12E-03  0.01222
   1338.    7.474  1.00E-06  1.80E-04  5.96E-13  1.07E-10  0.00E+00  0.00E+00  1.00E-06  1.80E-04  8.12E-03  0.00000
   1340.    7.463  9.76E-07  1.75E-04  9.07E-11  1.63E-08  0.00E+00  0.00E+00  9.76E-07  1.75E-04  8.12E-03  0.00003
   1342.    7.452  1.23E-06  2.21E-04  1.62E-08  2.93E-06  0.00E+00  0.00E+00  1.25E-06  2.24E-04  8.13E-03  0.00469
   1344.    7.440  1.71E-06  3.09E-04  1.17E-07  2.11E-05  0.00E+00  0.00E+00  1.83E-06  3.30E-04  8.13E-03  0.03379
   1346.    7.429  1.71E-06  3.09E-04  1.37E-07  2.49E-05  0.00E+00  0.00E+00  1.85E-06  3.34E-04  8.13E-03  0.03991
   1348.    7.418  1.39E-06  2.53E-04  4.14E-08  7.53E-06  0.00E+00  0.00E+00  1.43E-06  2.60E-04  8.14E-03  0.01208
   1350.    7.407  1.46E-06  2.67E-04  3.16E-08  5.76E-06  0.00E+00  0.00E+00  1.50E-06  2.73E-04  8.14E-03  0.00932
   1352.    7.396  1.59E-06  2.90E-04  5.83E-08  1.07E-05  0.00E+00  0.00E+00  1.64E-06  3.01E-04  8.14E-03  0.01722
   1354.    7.386  1.44E-06  2.64E-04  2.47E-08  4.53E-06  0.00E+00  0.00E+00  1.47E-06  2.69E-04  8.14E-03  0.00732
   1356.    7.375  1.42E-06  2.61E-04  1.21E-08  2.22E-06  0.00E+00  0.00E+00  1.43E-06  2.63E-04  8.15E-03  0.00362
   1358.    7.364  1.55E-06  2.86E-04  1.24E-08  2.29E-06  0.00E+00  0.00E+00  1.56E-06  2.88E-04  8.15E-03  0.00373
   1360.    7.353  1.32E-06  2.45E-04  1.45E-09  2.68E-07  0.00E+00  0.00E+00  1.32E-06  2.45E-04  8.15E-03  0.00044
   1362.    7.342  9.59E-07  1.78E-04  1.65E-11  3.06E-09  0.00E+00  0.00E+00  9.59E-07  1.78E-04  8.16E-03  0.00000
   1364.    7.331  1.11E-06  2.07E-04  4.31E-10  8.02E-08  0.00E+00  0.00E+00  1.11E-06  2.07E-04  8.16E-03  0.00013
   1366.    7.321  1.52E-06  2.83E-04  2.61E-09  4.86E-07  0.00E+00  0.00E+00  1.52E-06  2.84E-04  8.16E-03  0.00080
   1368.    7.310  1.32E-06  2.47E-04  1.78E-09  3.33E-07  0.00E+00  0.00E+00  1.32E-06  2.47E-04  8.16E-03  0.00055
   1370.    7.299  1.27E-06  2.38E-04  5.74E-11  1.08E-08  0.00E+00  0.00E+00  1.27E-06  2.38E-04  8.17E-03  0.00002
   1372.    7.289  1.18E-06  2.22E-04  4.48E-11  8.43E-09  0.00E+00  0.00E+00  1.18E-06  2.22E-04  8.17E-03  0.00001
   1374.    7.278  8.27E-07  1.56E-04  4.19E-14  7.90E-12  0.00E+00  0.00E+00  8.27E-07  1.56E-04  8.17E-03  0.00000
   1376.    7.267  9.87E-07  1.87E-04  4.49E-12  8.49E-10  0.00E+00  0.00E+00  9.87E-07  1.87E-04  8.17E-03  0.00000
   1378.    7.257  1.22E-06  2.32E-04  1.67E-11  3.16E-09  0.00E+00  0.00E+00  1.22E-06  2.32E-04  8.17E-03  0.00001
   1380.    7.246  1.35E-06  2.58E-04  2.21E-09  4.22E-07  0.00E+00  0.00E+00  1.36E-06  2.58E-04  8.18E-03  0.00071
   1382.    7.236  1.53E-06  2.92E-04  3.49E-09  6.66E-07  0.00E+00  0.00E+00  1.53E-06  2.93E-04  8.18E-03  0.00112
   1384.    7.225  1.45E-06  2.77E-04  1.24E-09  2.37E-07  0.00E+00  0.00E+00  1.45E-06  2.77E-04  8.18E-03  0.00040
   1386.    7.215  1.03E-06  1.98E-04  1.33E-10  2.55E-08  0.00E+00  0.00E+00  1.03E-06  1.98E-04  8.18E-03  0.00004
   1388.    7.205  8.56E-07  1.65E-04  6.20E-14  1.19E-11  0.00E+00  0.00E+00  8.56E-07  1.65E-04  8.19E-03  0.00000
   1390.    7.194  1.11E-06  2.15E-04  2.38E-13  4.60E-11  0.00E+00  0.00E+00  1.11E-06  2.15E-04  8.19E-03  0.00000
   1392.    7.184  1.08E-06  2.09E-04  1.27E-13  2.46E-11  0.00E+00  0.00E+00  1.08E-06  2.09E-04  8.19E-03  0.00000
   1394.    7.174  7.55E-07  1.47E-04  5.10E-15  9.91E-13  0.00E+00  0.00E+00  7.55E-07  1.47E-04  8.19E-03  0.00000
   1396.    7.163  7.36E-07  1.43E-04  1.56E-17  3.03E-15  0.00E+00  0.00E+00  7.36E-07  1.43E-04  8.19E-03  0.00000
   1398.    7.153  7.46E-07  1.46E-04  7.76E-14  1.52E-11  0.00E+00  0.00E+00  7.46E-07  1.46E-04  8.20E-03  0.00000
   1400.    7.143  8.22E-07  1.61E-04  1.77E-13  3.47E-11  0.00E+00  0.00E+00  8.22E-07  1.61E-04  8.20E-03  0.00000
  iv         1405
1                                             RADIANCE(WATTS/CM2-STER-XXX)
0  FREQ   WAVLEN    PATH THERMAL      SURFACE EMISSION    SURFACE REFLECTED     TOTAL RADIANCE   INTEGRAL    TOTAL
  (CM-1) (MICRN)    (CM-1)   (MICRN)    (CM-1)   (MICRN)    (CM-1)   (MICRN)    (CM-1)   (MICRN)    (CM-1)   TRANS

   1402.    7.133  1.09E-06  2.14E-04  3.01E-13  5.92E-11  0.00E+00  0.00E+00  1.09E-06  2.14E-04  8.20E-03  0.00000
   1404.    7.123  9.20E-07  1.81E-04  2.98E-12  5.87E-10  0.00E+00  0.00E+00  9.20E-07  1.81E-04  8.20E-03  0.00000
   1406.    7.112  1.04E-06  2.06E-04  4.05E-11  8.01E-09  0.00E+00  0.00E+00  1.04E-06  2.06E-04  8.20E-03  0.00001
   1408.    7.102  1.29E-06  2.55E-04  1.07E-10  2.13E-08  0.00E+00  0.00E+00  1.29E-06  2.55E-04  8.21E-03  0.00004
   1410.    7.092  1.14E-06  2.27E-04  3.90E-11  7.76E-09  0.00E+00  0.00E+00  1.14E-06  2.27E-04  8.21E-03  0.00001
   1412.    7.082  1.08E-06  2.15E-04  1.43E-11  2.84E-09  0.00E+00  0.00E+00  1.08E-06  2.15E-04  8.21E-03  0.00001
   1414.    7.072  1.11E-06  2.23E-04  1.42E-11  2.84E-09  0.00E+00  0.00E+00  1.11E-06  2.23E-04  8.21E-03  0.00000
   1416.    7.062  8.54E-07  1.71E-04  5.75E-13  1.15E-10  0.00E+00  0.00E+00  8.54E-07  1.71E-04  8.21E-03  0.00000
   1418.    7.052  5.87E-07  1.18E-04  1.37E-19  2.76E-17  0.00E+00  0.00E+00  5.87E-07  1.18E-04  8.22E-03  0.00000
   1420.    7.042  5.70E-07  1.15E-04  3.59E-23  7.25E-21  0.00E+00  0.00E+00  5.70E-07  1.15E-04  8.22E-03  0.00000
   1422.    7.032  7.36E-07  1.49E-04  2.11E-18  4.27E-16  0.00E+00  0.00E+00  7.36E-07  1.49E-04  8.22E-03  0.00000
   1424.    7.022  7.29E-07  1.48E-04  5.69E-16  1.15E-13  0.00E+00  0.00E+00  7.29E-07  1.48E-04  8.22E-03  0.00000
   1426.    7.013  9.18E-07  1.87E-04  5.56E-15  1.13E-12  0.00E+00  0.00E+00  9.18E-07  1.87E-04  8.22E-03  0.00000
   1428.    7.003  8.38E-07  1.71E-04  9.30E-15  1.90E-12  0.00E+00  0.00E+00  8.38E-07  1.71E-04  8.22E-03  0.00000
   1430.    6.993  6.82E-07  1.39E-04  1.46E-14  2.98E-12  0.00E+00  0.00E+00  6.82E-07  1.39E-04  8.22E-03  0.00000
   1432.    6.983  7.73E-07  1.58E-04  4.87E-15  9.98E-13  0.00E+00  0.00E+00  7.73E-07  1.58E-04  8.23E-03  0.00000
   1434.    6.974  7.18E-07  1.48E-04  1.77E-18  3.65E-16  0.00E+00  0.00E+00  7.18E-07  1.48E-04  8.23E-03  0.00000
   1436.    6.964  5.25E-07  1.08E-04  1.49E-24  3.08E-22  0.00E+00  0.00E+00  5.25E-07  1.08E-04  8.23E-03  0.00000
   1438.    6.954  6.32E-07  1.31E-04  4.51E-17  9.33E-15  0.00E+00  0.00E+00  6.32E-07  1.31E-04  8.23E-03  0.00000
   1440.    6.944  9.18E-07  1.90E-04  4.19E-14  8.68E-12  0.00E+00  0.00E+00  9.18E-07  1.90E-04  8.23E-03  0.00000
   1442.    6.935  1.02E-06  2.13E-04  3.13E-13  6.50E-11  0.00E+00  0.00E+00  1.02E-06  2.13E-04  8.23E-03  0.00000
   1444.    6.925  9.86E-07  2.06E-04  3.85E-13  8.02E-11  0.00E+00  0.00E+00  9.86E-07  2.06E-04  8.24E-03  0.00000
   1446.    6.916  7.47E-07  1.56E-04  7.62E-14  1.59E-11  0.00E+00  0.00E+00  7.47E-07  1.56E-04  8.24E-03  0.00000
   1448.    6.906  6.26E-07  1.31E-04  1.06E-15  2.23E-13  0.00E+00  0.00E+00  6.26E-07  1.31E-04  8.24E-03  0.00000
   1450.    6.897  7.54E-07  1.59E-04  3.55E-16  7.47E-14  0.00E+00  0.00E+00  7.54E-07  1.59E-04  8.24E-03  0.00000
   1452.    6.887  7.01E-07  1.48E-04  4.75E-19  1.00E-16  0.00E+00  0.00E+00  7.01E-07  1.48E-04  8.24E-03  0.00000
   1454.    6.878  5.78E-07  1.22E-04  5.69E-23  1.20E-20  0.00E+00  0.00E+00  5.78E-07  1.22E-04  8.24E-03  0.00000
   1456.    6.868  3.91E-07  8.30E-05  3.53E-37  7.49E-35  0.00E+00  0.00E+00  3.91E-07  8.30E-05  8.24E-03  0.00000
   1458.    6.859  3.57E-07  7.58E-05  5.61E-45  1.19E-42  0.00E+00  0.00E+00  3.57E-07  7.58E-05  8.24E-03  0.00000
   1460.    6.849  5.34E-07  1.14E-04  2.16E-26  4.61E-24  0.00E+00  0.00E+00  5.34E-07  1.14E-04  8.24E-03  0.00000
   1462.    6.840  6.46E-07  1.38E-04  6.48E-26  1.38E-23  0.00E+00  0.00E+00  6.46E-07  1.38E-04  8.25E-03  0.00000
   1464.    6.831  4.93E-07  1.06E-04  1.10E-18  2.37E-16  0.00E+00  0.00E+00  4.93E-07  1.06E-04  8.25E-03  0.00000
   1466.    6.821  5.25E-07  1.13E-04  1.10E-18  2.37E-16  0.00E+00  0.00E+00  5.25E-07  1.13E-04  8.25E-03  0.00000
   1468.    6.812  6.71E-07  1.45E-04  4.40E-23  9.48E-21  0.00E+00  0.00E+00  6.71E-07  1.45E-04  8.25E-03  0.00000
   1470.    6.803  5.88E-07  1.27E-04  2.48E-23  5.35E-21  0.00E+00  0.00E+00  5.88E-07  1.27E-04  8.25E-03  0.00000
   1472.    6.793  3.91E-07  8.46E-05  1.89E-31  4.10E-29  0.00E+00  0.00E+00  3.91E-07  8.46E-05  8.25E-03  0.00000
   1474.    6.784  3.73E-07  8.11E-05  3.20E-31  6.95E-29  0.00E+00  0.00E+00  3.73E-07  8.11E-05  8.25E-03  0.00000
   1476.    6.775  4.54E-07  9.89E-05  1.17E-25  2.54E-23  0.00E+00  0.00E+00  4.54E-07  9.89E-05  8.25E-03  0.00000
   1478.    6.766  6.34E-07  1.38E-04  2.91E-20  6.35E-18  0.00E+00  0.00E+00  6.34E-07  1.38E-04  8.25E-03  0.00000
   1480.    6.757  6.62E-07  1.45E-04  4.31E-20  9.44E-18  0.00E+00  0.00E+00  6.62E-07  1.45E-04  8.26E-03  0.00000
   1482.    6.748  6.31E-07  1.39E-04  1.11E-19  2.44E-17  0.00E+00  0.00E+00  6.31E-07  1.39E-04  8.26E-03  0.00000
   1484.    6.739  6.70E-07  1.48E-04  1.12E-19  2.47E-17  0.00E+00  0.00E+00  6.70E-07  1.48E-04  8.26E-03  0.00000
   1486.    6.729  5.08E-07  1.12E-04  7.39E-21  1.63E-18  0.00E+00  0.00E+00  5.08E-07  1.12E-04  8.26E-03  0.00000
   1488.    6.720  3.81E-07  8.44E-05  2.05E-27  4.54E-25  0.00E+00  0.00E+00  3.81E-07  8.44E-05  8.26E-03  0.00000
   1490.    6.711  3.66E-07  8.12E-05  3.77E-37  8.37E-35  0.00E+00  0.00E+00  3.66E-07  8.12E-05  8.26E-03  0.00000
   1492.    6.702  4.82E-07  1.07E-04  9.21E-31  2.05E-28  0.00E+00  0.00E+00  4.82E-07  1.07E-04  8.26E-03  0.00000
   1494.    6.693  5.16E-07  1.15E-04  1.01E-26  2.25E-24  0.00E+00  0.00E+00  5.16E-07  1.15E-04  8.26E-03  0.00000
   1496.    6.684  3.71E-07  8.31E-05  3.02E-26  6.76E-24  0.00E+00  0.00E+00  3.71E-07  8.31E-05  8.26E-03  0.00000
   1498.    6.676  3.32E-07  7.44E-05  1.01E-26  2.26E-24  0.00E+00  0.00E+00  3.32E-07  7.44E-05  8.26E-03  0.00000
   1500.    6.667  3.97E-07  8.94E-05  3.87E-34  8.71E-32  0.00E+00  0.00E+00  3.97E-07  8.94E-05  8.26E-03  0.00000
  iv         1505
1                                             RADIANCE(WATTS/CM2-STER-XXX)
0  FREQ   WAVLEN    PATH THERMAL      SURFACE EMISSION    SURFACE REFLECTED     TOTAL RADIANCE   INTEGRAL    TOTAL
  (CM-1) (MICRN)    (CM-1)   (MICRN)    (CM-1)   (MICRN)    (CM-1)   (MICRN)    (CM-1)   (MICRN)    (CM-1)   TRANS

   1502.    6.658  4.53E-07  1.02E-04  3.81E-39  8.60E-37  0.00E+00  0.00E+00  4.53E-07  1.02E-04  8.27E-03  0.00000
   1504.    6.649  3.86E-07  8.73E-05  1.27E-39  2.87E-37  0.00E+00  0.00E+00  3.86E-07  8.73E-05  8.27E-03  0.00000
   1506.    6.640  2.63E-07  5.97E-05  0.00E+00  0.00E+00  0.00E+00  0.00E+00  2.63E-07  5.97E-05  8.27E-03  0.00000
   1508.    6.631  2.60E-07  5.92E-05  0.00E+00  0.00E+00  0.00E+00  0.00E+00  2.60E-07  5.92E-05  8.27E-03  0.00000
   1510.    6.623  3.19E-07  7.28E-05  9.13E-39  2.08E-36  0.00E+00  0.00E+00  3.19E-07  7.28E-05  8.27E-03  0.00000
   1512.    6.614  3.73E-07  8.52E-05  2.74E-38  6.26E-36  0.00E+00  0.00E+00  3.73E-07  8.52E-05  8.27E-03  0.00000
   1514.    6.605  3.96E-07  9.07E-05  9.13E-39  2.09E-36  0.00E+00  0.00E+00  3.96E-07  9.07E-05  8.27E-03  0.00000
   1516.    6.596  3.20E-07  7.36E-05  0.00E+00  0.00E+00  0.00E+00  0.00E+00  3.20E-07  7.36E-05  8.27E-03  0.00000
   1518.    6.588  3.05E-07  7.04E-05  0.00E+00  0.00E+00  0.00E+00  0.00E+00  3.05E-07  7.04E-05  8.27E-03  0.00000
   1520.    6.579  2.84E-07  6.56E-05  0.00E+00  0.00E+00  0.00E+00  0.00E+00  2.84E-07  6.56E-05  8.27E-03  0.00000
   1522.    6.570  2.52E-07  5.83E-05  0.00E+00  0.00E+00  0.00E+00  0.00E+00  2.52E-07  5.83E-05  8.27E-03  0.00000
   1524.    6.562  2.86E-07  6.64E-05  3.50E-44  8.14E-42  0.00E+00  0.00E+00  2.86E-07  6.64E-05  8.27E-03  0.00000
   1526.    6.553  3.15E-07  7.35E-05  3.50E-44  8.16E-42  0.00E+00  0.00E+00  3.15E-07  7.35E-05  8.27E-03  0.00000
   1528.    6.545  3.50E-07  8.16E-05  2.07E-37  4.84E-35  0.00E+00  0.00E+00  3.50E-07  8.16E-05  8.27E-03  0.00000
   1530.    6.536  3.95E-07  9.24E-05  2.07E-37  4.85E-35  0.00E+00  0.00E+00  3.95E-07  9.24E-05  8.27E-03  0.00000
   1532.    6.527  3.32E-07  7.80E-05  3.47E-42  8.15E-40  0.00E+00  0.00E+00  3.32E-07  7.80E-05  8.28E-03  0.00000
   1534.    6.519  2.82E-07  6.64E-05  0.00E+00  0.00E+00  0.00E+00  0.00E+00  2.82E-07  6.64E-05  8.28E-03  0.00000
   1536.    6.510  3.35E-07  7.91E-05  0.00E+00  0.00E+00  0.00E+00  0.00E+00  3.35E-07  7.91E-05  8.28E-03  0.00000
   1538.    6.502  2.65E-07  6.28E-05  0.00E+00  0.00E+00  0.00E+00  0.00E+00  2.65E-07  6.28E-05  8.28E-03  0.00000
   1540.    6.494  2.02E-07  4.78E-05  0.00E+00  0.00E+00  0.00E+00  0.00E+00  2.02E-07  4.78E-05  8.28E-03  0.00000
   1542.    6.485  2.18E-07  5.19E-05  0.00E+00  0.00E+00  0.00E+00  0.00E+00  2.18E-07  5.19E-05  8.28E-03  0.00000
   1544.    6.477  2.61E-07  6.21E-05  0.00E+00  0.00E+00  0.00E+00  0.00E+00  2.61E-07  6.21E-05  8.28E-03  0.00000
   1546.    6.468  3.26E-07  7.80E-05  1.05E-39  2.52E-37  0.00E+00  0.00E+00  3.26E-07  7.80E-05  8.28E-03  0.00000
   1548.    6.460  3.84E-07  9.20E-05  3.44E-36  8.24E-34  0.00E+00  0.00E+00  3.84E-07  9.20E-05  8.28E-03  0.00000
   1550.    6.452  3.43E-07  8.25E-05  1.03E-35  2.48E-33  0.00E+00  0.00E+00  3.43E-07  8.25E-05  8.28E-03  0.00000
   1552.    6.443  3.34E-07  8.04E-05  3.44E-36  8.28E-34  0.00E+00  0.00E+00  3.34E-07  8.04E-05  8.28E-03  0.00000
   1554.    6.435  2.78E-07  6.71E-05  3.77E-40  9.11E-38  0.00E+00  0.00E+00  2.78E-07  6.71E-05  8.28E-03  0.00000
   1556.    6.427  2.42E-07  5.87E-05  1.26E-40  3.04E-38  0.00E+00  0.00E+00  2.42E-07  5.87E-05  8.28E-03  0.00000
   1558.    6.418  1.94E-07  4.70E-05  0.00E+00  0.00E+00  0.00E+00  0.00E+00  1.94E-07  4.70E-05  8.28E-03  0.00000
   1560.    6.410  1.98E-07  4.82E-05  0.00E+00  0.00E+00  0.00E+00  0.00E+00  1.98E-07  4.82E-05  8.28E-03  0.00000
   1562.    6.402  2.83E-07  6.91E-05  0.00E+00  0.00E+00  0.00E+00  0.00E+00  2.83E-07  6.91E-05  8.28E-03  0.00000
   1564.    6.394  3.02E-07  7.38E-05  3.20E-35  7.82E-33  0.00E+00  0.00E+00  3.02E-07  7.38E-05  8.28E-03  0.00000
   1566.    6.386  3.24E-07  7.94E-05  3.20E-35  7.84E-33  0.00E+00  0.00E+00  3.24E-07  7.94E-05  8.28E-03  0.00000
   1568.    6.378  2.96E-07  7.27E-05  1.38E-35  3.40E-33  0.00E+00  0.00E+00  2.96E-07  7.27E-05  8.29E-03  0.00000
   1570.    6.369  2.53E-07  6.24E-05  4.15E-35  1.02E-32  0.00E+00  0.00E+00  2.53E-07  6.24E-05  8.29E-03  0.00000
   1572.    6.361  3.33E-07  8.24E-05  1.38E-35  3.42E-33  0.00E+00  0.00E+00  3.33E-07  8.24E-05  8.29E-03  0.00000
   1574.    6.353  3.07E-07  7.60E-05  9.50E-22  2.35E-19  0.00E+00  0.00E+00  3.07E-07  7.60E-05  8.29E-03  0.00000
   1576.    6.345  2.16E-07  5.35E-05  2.85E-21  7.08E-19  0.00E+00  0.00E+00  2.16E-07  5.35E-05  8.29E-03  0.00000
   1578.    6.337  2.74E-07  6.83E-05  9.50E-22  2.37E-19  0.00E+00  0.00E+00  2.74E-07  6.83E-05  8.29E-03  0.00000
   1580.    6.329  4.07E-07  1.02E-04  2.49E-21  6.21E-19  0.00E+00  0.00E+00  4.07E-07  1.02E-04  8.29E-03  0.00000
   1582.    6.321  4.69E-07  1.17E-04  4.21E-18  1.05E-15  0.00E+00  0.00E+00  4.69E-07  1.17E-04  8.29E-03  0.00000
   1584.    6.313  5.14E-07  1.29E-04  2.09E-16  5.25E-14  0.00E+00  0.00E+00  5.14E-07  1.29E-04  8.29E-03  0.00000
   1586.    6.305  5.40E-07  1.36E-04  1.28E-15  3.22E-13  0.00E+00  0.00E+00  5.40E-07  1.36E-04  8.29E-03  0.00000
   1588.    6.297  5.21E-07  1.31E-04  1.98E-15  4.99E-13  0.00E+00  0.00E+00  5.21E-07  1.31E-04  8.29E-03  0.00000
   1590.    6.289  4.55E-07  1.15E-04  5.21E-16  1.32E-13  0.00E+00  0.00E+00  4.55E-07  1.15E-04  8.29E-03  0.00000
   1592.    6.281  4.30E-07  1.09E-04  3.38E-17  8.57E-15  0.00E+00  0.00E+00  4.30E-07  1.09E-04  8.30E-03  0.00000
   1594.    6.274  3.90E-07  9.90E-05  6.19E-17  1.57E-14  0.00E+00  0.00E+00  3.90E-07  9.90E-05  8.30E-03  0.00000
   1596.    6.266  4.09E-07  1.04E-04  2.83E-15  7.22E-13  0.00E+00  0.00E+00  4.09E-07  1.04E-04  8.30E-03  0.00000
   1598.    6.258  5.10E-07  1.30E-04  1.77E-14  4.52E-12  0.00E+00  0.00E+00  5.10E-07  1.30E-04  8.30E-03  0.00000
   1600.    6.250  4.81E-07  1.23E-04  1.33E-14  3.40E-12  0.00E+00  0.00E+00  4.81E-07  1.23E-04  8.30E-03  0.00000
  iv         1605
1                                             RADIANCE(WATTS/CM2-STER-XXX)
0  FREQ   WAVLEN    PATH THERMAL      SURFACE EMISSION    SURFACE REFLECTED     TOTAL RADIANCE   INTEGRAL    TOTAL
  (CM-1) (MICRN)    (CM-1)   (MICRN)    (CM-1)   (MICRN)    (CM-1)   (MICRN)    (CM-1)   (MICRN)    (CM-1)   TRANS

   1602.    6.242  3.85E-07  9.89E-05  6.13E-16  1.57E-13  0.00E+00  0.00E+00  3.85E-07  9.89E-05  8.30E-03  0.00000
   1604.    6.234  4.16E-07  1.07E-04  1.83E-16  4.71E-14  0.00E+00  0.00E+00  4.16E-07  1.07E-04  8.30E-03  0.00000
   1606.    6.227  4.16E-07  1.07E-04  1.83E-16  4.73E-14  0.00E+00  0.00E+00  4.16E-07  1.07E-04  8.30E-03  0.00000
   1608.    6.219  3.30E-07  8.53E-05  2.12E-19  5.47E-17  0.00E+00  0.00E+00  3.30E-07  8.53E-05  8.30E-03  0.00000
   1610.    6.211  3.46E-07  8.98E-05  2.90E-20  7.53E-18  0.00E+00  0.00E+00  3.46E-07  8.98E-05  8.30E-03  0.00000
   1612.    6.203  3.88E-07  1.01E-04  8.57E-21  2.23E-18  0.00E+00  0.00E+00  3.88E-07  1.01E-04  8.30E-03  0.00000
   1614.    6.196  3.16E-07  8.24E-05  2.42E-22  6.30E-20  0.00E+00  0.00E+00  3.16E-07  8.24E-05  8.30E-03  0.00000
   1616.    6.188  2.00E-07  5.22E-05  1.36E-18  3.56E-16  0.00E+00  0.00E+00  2.00E-07  5.22E-05  8.30E-03  0.00000
   1618.    6.180  2.19E-07  5.72E-05  1.36E-18  3.57E-16  0.00E+00  0.00E+00  2.19E-07  5.72E-05  8.30E-03  0.00000
   1620.    6.173  2.94E-07  7.72E-05  7.59E-34  1.99E-31  0.00E+00  0.00E+00  2.94E-07  7.72E-05  8.31E-03  0.00000
   1622.    6.165  2.51E-07  6.59E-05  2.45E-26  6.44E-24  0.00E+00  0.00E+00  2.51E-07  6.59E-05  8.31E-03  0.00000
   1624.    6.158  2.11E-07  5.57E-05  7.34E-26  1.94E-23  0.00E+00  0.00E+00  2.11E-07  5.57E-05  8.31E-03  0.00000
   1626.    6.150  2.42E-07  6.40E-05  7.30E-25  1.93E-22  0.00E+00  0.00E+00  2.42E-07  6.40E-05  8.31E-03  0.00000
   1628.    6.143  2.40E-07  6.36E-05  2.12E-24  5.61E-22  0.00E+00  0.00E+00  2.40E-07  6.36E-05  8.31E-03  0.00000
   1630.    6.135  3.12E-07  8.29E-05  7.08E-25  1.88E-22  0.00E+00  0.00E+00  3.12E-07  8.29E-05  8.31E-03  0.00000
   1632.    6.127  3.07E-07  8.19E-05  2.13E-27  5.66E-25  0.00E+00  0.00E+00  3.07E-07  8.19E-05  8.31E-03  0.00000
   1634.    6.120  2.04E-07  5.44E-05  2.81E-32  7.50E-30  0.00E+00  0.00E+00  2.04E-07  5.44E-05  8.31E-03  0.00000
   1636.    6.112  1.52E-07  4.07E-05  0.00E+00  0.00E+00  0.00E+00  0.00E+00  1.52E-07  4.07E-05  8.31E-03  0.00000
   1638.    6.105  1.96E-07  5.26E-05  5.58E-36  1.50E-33  0.00E+00  0.00E+00  1.96E-07  5.26E-05  8.31E-03  0.00000
   1640.    6.098  2.57E-07  6.90E-05  5.86E-34  1.58E-31  0.00E+00  0.00E+00  2.57E-07  6.90E-05  8.31E-03  0.00000
   1642.    6.090  2.76E-07  7.44E-05  1.68E-33  4.54E-31  0.00E+00  0.00E+00  2.76E-07  7.44E-05  8.31E-03  0.00000
   1644.    6.083  2.29E-07  6.18E-05  5.54E-34  1.50E-31  0.00E+00  0.00E+00  2.29E-07  6.18E-05  8.31E-03  0.00000
   1646.    6.075  1.53E-07  4.15E-05  0.00E+00  0.00E+00  0.00E+00  0.00E+00  1.53E-07  4.15E-05  8.31E-03  0.00000
   1648.    6.068  1.59E-07  4.33E-05  0.00E+00  0.00E+00  0.00E+00  0.00E+00  1.59E-07  4.33E-05  8.31E-03  0.00000
   1650.    6.061  1.81E-07  4.93E-05  0.00E+00  0.00E+00  0.00E+00  0.00E+00  1.81E-07  4.93E-05  8.31E-03  0.00000
   1652.    6.053  1.38E-07  3.78E-05  0.00E+00  0.00E+00  0.00E+00  0.00E+00  1.38E-07  3.78E-05  8.31E-03  0.00000
   1654.    6.046  1.29E-07  3.53E-05  0.00E+00  0.00E+00  0.00E+00  0.00E+00  1.29E-07  3.53E-05  8.31E-03  0.00000
   1656.    6.039  1.96E-07  5.38E-05  8.77E-38  2.41E-35  0.00E+00  0.00E+00  1.96E-07  5.38E-05  8.31E-03  0.00000
   1658.    6.031  2.69E-07  7.40E-05  5.40E-33  1.48E-30  0.00E+00  0.00E+00  2.69E-07  7.40E-05  8.31E-03  0.00000
   1660.    6.024  2.65E-07  7.30E-05  6.19E-33  1.71E-30  0.00E+00  0.00E+00  2.65E-07  7.30E-05  8.31E-03  0.00000
   1662.    6.017  1.92E-07  5.31E-05  1.93E-27  5.32E-25  0.00E+00  0.00E+00  1.92E-07  5.31E-05  8.31E-03  0.00000
   1664.    6.010  2.18E-07  6.04E-05  1.93E-27  5.33E-25  0.00E+00  0.00E+00  2.18E-07  6.04E-05  8.31E-03  0.00000
   1666.    6.002  2.60E-07  7.22E-05  1.78E-33  4.95E-31  0.00E+00  0.00E+00  2.60E-07  7.22E-05  8.32E-03  0.00000
   1668.    5.995  1.87E-07  5.20E-05  5.87E-34  1.63E-31  0.00E+00  0.00E+00  1.87E-07  5.20E-05  8.32E-03  0.00000
   1670.    5.988  1.41E-07  3.95E-05  0.00E+00  0.00E+00  0.00E+00  0.00E+00  1.41E-07  3.95E-05  8.32E-03  0.00000
   1672.    5.981  1.73E-07  4.82E-05  0.00E+00  0.00E+00  0.00E+00  0.00E+00  1.73E-07  4.82E-05  8.32E-03  0.00000
   1674.    5.974  1.78E-07  5.00E-05  0.00E+00  0.00E+00  0.00E+00  0.00E+00  1.78E-07  5.00E-05  8.32E-03  0.00000
   1676.    5.967  1.66E-07  4.67E-05  2.85E-41  8.02E-39  0.00E+00  0.00E+00  1.66E-07  4.67E-05  8.32E-03  0.00000
   1678.    5.959  2.09E-07  5.89E-05  1.26E-40  3.54E-38  0.00E+00  0.00E+00  2.09E-07  5.89E-05  8.32E-03  0.00000
   1680.    5.952  1.95E-07  5.51E-05  1.49E-40  4.20E-38  0.00E+00  0.00E+00  1.95E-07  5.51E-05  8.32E-03  0.00000
   1682.    5.945  1.65E-07  4.66E-05  4.01E-41  1.14E-38  0.00E+00  0.00E+00  1.65E-07  4.66E-05  8.32E-03  0.00000
   1684.    5.938  1.21E-07  3.42E-05  0.00E+00  0.00E+00  0.00E+00  0.00E+00  1.21E-07  3.42E-05  8.32E-03  0.00000
   1686.    5.931  1.49E-07  4.24E-05  0.00E+00  0.00E+00  0.00E+00  0.00E+00  1.49E-07  4.24E-05  8.32E-03  0.00000
   1688.    5.924  1.81E-07  5.17E-05  2.62E-37  7.47E-35  0.00E+00  0.00E+00  1.81E-07  5.17E-05  8.32E-03  0.00000
   1690.    5.917  1.90E-07  5.43E-05  7.87E-37  2.25E-34  0.00E+00  0.00E+00  1.90E-07  5.43E-05  8.32E-03  0.00000
   1692.    5.910  2.10E-07  6.01E-05  2.63E-37  7.54E-35  0.00E+00  0.00E+00  2.10E-07  6.01E-05  8.32E-03  0.00000
   1694.    5.903  1.68E-07  4.82E-05  3.70E-40  1.06E-37  0.00E+00  0.00E+00  1.68E-07  4.82E-05  8.32E-03  0.00000
   1696.    5.896  1.24E-07  3.55E-05  0.00E+00  0.00E+00  0.00E+00  0.00E+00  1.24E-07  3.55E-05  8.32E-03  0.00000
   1698.    5.889  1.24E-07  3.58E-05  0.00E+00  0.00E+00  0.00E+00  0.00E+00  1.24E-07  3.58E-05  8.32E-03  0.00000
   1700.    5.882  1.08E-07  3.12E-05  0.00E+00  0.00E+00  0.00E+00  0.00E+00  1.08E-07  3.12E-05  8.32E-03  0.00000
  iv         1705
1                                             RADIANCE(WATTS/CM2-STER-XXX)
0  FREQ   WAVLEN    PATH THERMAL      SURFACE EMISSION    SURFACE REFLECTED     TOTAL RADIANCE   INTEGRAL    TOTAL
  (CM-1) (MICRN)    (CM-1)   (MICRN)    (CM-1)   (MICRN)    (CM-1)   (MICRN)    (CM-1)   (MICRN)    (CM-1)   TRANS

   1702.    5.875  1.36E-07  3.93E-05  1.68E-44  4.87E-42  0.00E+00  0.00E+00  1.36E-07  3.93E-05  8.32E-03  0.00000
   1704.    5.869  1.43E-07  4.16E-05  2.87E-40  8.34E-38  0.00E+00  0.00E+00  1.43E-07  4.16E-05  8.32E-03  0.00000
   1706.    5.862  1.38E-07  4.02E-05  8.61E-40  2.51E-37  0.00E+00  0.00E+00  1.38E-07  4.02E-05  8.32E-03  0.00000
   1708.    5.855  1.88E-07  5.50E-05  5.77E-30  1.68E-27  0.00E+00  0.00E+00  1.88E-07  5.50E-05  8.32E-03  0.00000
   1710.    5.848  2.08E-07  6.09E-05  1.72E-29  5.03E-27  0.00E+00  0.00E+00  2.08E-07  6.09E-05  8.32E-03  0.00000
   1712.    5.841  2.09E-07  6.14E-05  5.75E-30  1.68E-27  0.00E+00  0.00E+00  2.09E-07  6.14E-05  8.32E-03  0.00000
   1714.    5.834  1.62E-07  4.75E-05  9.59E-33  2.82E-30  0.00E+00  0.00E+00  1.62E-07  4.75E-05  8.32E-03  0.00000
   1716.    5.828  1.21E-07  3.55E-05  4.12E-43  1.21E-40  0.00E+00  0.00E+00  1.21E-07  3.55E-05  8.32E-03  0.00000
   1718.    5.821  1.16E-07  3.42E-05  4.12E-43  1.22E-40  0.00E+00  0.00E+00  1.16E-07  3.42E-05  8.32E-03  0.00000
   1720.    5.814  1.78E-07  5.27E-05  2.84E-28  8.41E-26  0.00E+00  0.00E+00  1.78E-07  5.27E-05  8.32E-03  0.00000
   1722.    5.807  2.20E-07  6.53E-05  7.23E-25  2.14E-22  0.00E+00  0.00E+00  2.20E-07  6.53E-05  8.32E-03  0.00000
   1724.    5.800  2.42E-07  7.19E-05  1.47E-20  4.38E-18  0.00E+00  0.00E+00  2.42E-07  7.19E-05  8.33E-03  0.00000
   1726.    5.794  2.66E-07  7.94E-05  2.60E-20  7.74E-18  0.00E+00  0.00E+00  2.66E-07  7.94E-05  8.33E-03  0.00000
   1728.    5.787  2.41E-07  7.19E-05  6.07E-21  1.81E-18  0.00E+00  0.00E+00  2.41E-07  7.19E-05  8.33E-03  0.00000
   1730.    5.780  1.78E-07  5.33E-05  5.11E-23  1.53E-20  0.00E+00  0.00E+00  1.78E-07  5.33E-05  8.33E-03  0.00000
   1732.    5.774  1.38E-07  4.13E-05  5.21E-31  1.56E-28  0.00E+00  0.00E+00  1.38E-07  4.13E-05  8.33E-03  0.00000
   1734.    5.767  1.07E-07  3.22E-05  0.00E+00  0.00E+00  0.00E+00  0.00E+00  1.07E-07  3.22E-05  8.33E-03  0.00000
   1736.    5.760  1.42E-07  4.29E-05  1.40E-45  4.22E-43  0.00E+00  0.00E+00  1.42E-07  4.29E-05  8.33E-03  0.00000
   1738.    5.754  1.48E-07  4.47E-05  4.23E-24  1.28E-21  0.00E+00  0.00E+00  1.48E-07  4.47E-05  8.33E-03  0.00000
   1740.    5.747  1.34E-07  4.05E-05  1.27E-23  3.84E-21  0.00E+00  0.00E+00  1.34E-07  4.05E-05  8.33E-03  0.00000
   1742.    5.741  1.63E-07  4.96E-05  4.23E-24  1.28E-21  0.00E+00  0.00E+00  1.63E-07  4.96E-05  8.33E-03  0.00000
   1744.    5.734  1.56E-07  4.75E-05  5.47E-31  1.66E-28  0.00E+00  0.00E+00  1.56E-07  4.75E-05  8.33E-03  0.00000
   1746.    5.727  1.53E-07  4.68E-05  1.63E-30  4.98E-28  0.00E+00  0.00E+00  1.53E-07  4.68E-05  8.33E-03  0.00000
   1748.    5.721  1.31E-07  4.01E-05  1.30E-28  3.96E-26  0.00E+00  0.00E+00  1.31E-07  4.01E-05  8.33E-03  0.00000
   1750.    5.714  1.31E-07  4.01E-05  2.64E-27  8.07E-25  0.00E+00  0.00E+00  1.31E-07  4.01E-05  8.33E-03  0.00000
   1752.    5.708  1.68E-07  5.17E-05  4.53E-21  1.39E-18  0.00E+00  0.00E+00  1.68E-07  5.17E-05  8.33E-03  0.00000
   1754.    5.701  2.27E-07  6.98E-05  1.53E-20  4.70E-18  0.00E+00  0.00E+00  2.27E-07  6.98E-05  8.33E-03  0.00000
   1756.    5.695  1.96E-07  6.03E-05  2.80E-18  8.64E-16  0.00E+00  0.00E+00  1.96E-07  6.03E-05  8.33E-03  0.00000
   1758.    5.688  1.91E-07  5.89E-05  2.80E-18  8.64E-16  0.00E+00  0.00E+00  1.91E-07  5.89E-05  8.33E-03  0.00000
   1760.    5.682  1.86E-07  5.77E-05  2.45E-17  7.58E-15  0.00E+00  0.00E+00  1.86E-07  5.77E-05  8.33E-03  0.00000
   1762.    5.675  1.52E-07  4.72E-05  7.35E-17  2.28E-14  0.00E+00  0.00E+00  1.52E-07  4.72E-05  8.33E-03  0.00000
   1764.    5.669  2.14E-07  6.66E-05  2.62E-17  8.16E-15  0.00E+00  0.00E+00  2.14E-07  6.66E-05  8.33E-03  0.00000
   1766.    5.663  2.35E-07  7.32E-05  3.99E-18  1.25E-15  0.00E+00  0.00E+00  2.35E-07  7.32E-05  8.33E-03  0.00000
   1768.    5.656  1.72E-07  5.36E-05  1.12E-18  3.51E-16  0.00E+00  0.00E+00  1.72E-07  5.36E-05  8.33E-03  0.00000
   1770.    5.650  1.33E-07  4.17E-05  6.13E-26  1.92E-23  0.00E+00  0.00E+00  1.33E-07  4.17E-05  8.33E-03  0.00000
   1772.    5.643  9.79E-08  3.07E-05  4.33E-24  1.36E-21  0.00E+00  0.00E+00  9.79E-08  3.07E-05  8.33E-03  0.00000
   1774.    5.637  1.25E-07  3.93E-05  3.41E-22  1.07E-19  0.00E+00  0.00E+00  1.25E-07  3.93E-05  8.33E-03  0.00000
   1776.    5.631  1.77E-07  5.58E-05  5.44E-19  1.72E-16  0.00E+00  0.00E+00  1.77E-07  5.58E-05  8.33E-03  0.00000
   1778.    5.624  2.05E-07  6.47E-05  1.63E-18  5.15E-16  0.00E+00  0.00E+00  2.05E-07  6.47E-05  8.33E-03  0.00000
   1780.    5.618  1.64E-07  5.19E-05  5.77E-19  1.83E-16  0.00E+00  0.00E+00  1.64E-07  5.19E-05  8.33E-03  0.00000
   1782.    5.612  1.86E-07  5.90E-05  5.71E-17  1.81E-14  0.00E+00  0.00E+00  1.86E-07  5.90E-05  8.33E-03  0.00000
   1784.    5.605  2.06E-07  6.54E-05  8.43E-16  2.68E-13  0.00E+00  0.00E+00  2.06E-07  6.54E-05  8.34E-03  0.00000
   1786.    5.599  2.42E-07  7.74E-05  8.84E-14  2.82E-11  0.00E+00  0.00E+00  2.42E-07  7.74E-05  8.34E-03  0.00000
   1788.    5.593  2.54E-07  8.14E-05  8.87E-14  2.84E-11  0.00E+00  0.00E+00  2.54E-07  8.14E-05  8.34E-03  0.00000
   1790.    5.587  1.72E-07  5.51E-05  9.51E-16  3.05E-13  0.00E+00  0.00E+00  1.72E-07  5.51E-05  8.34E-03  0.00000
   1792.    5.580  1.09E-07  3.49E-05  3.30E-16  1.06E-13  0.00E+00  0.00E+00  1.09E-07  3.49E-05  8.34E-03  0.00000
   1794.    5.574  1.28E-07  4.12E-05  3.30E-16  1.06E-13  0.00E+00  0.00E+00  1.28E-07  4.12E-05  8.34E-03  0.00000
   1796.    5.568  1.63E-07  5.25E-05  7.57E-19  2.44E-16  0.00E+00  0.00E+00  1.63E-07  5.25E-05  8.34E-03  0.00000
   1798.    5.562  1.75E-07  5.67E-05  1.49E-15  4.82E-13  0.00E+00  0.00E+00  1.75E-07  5.67E-05  8.34E-03  0.00000
   1800.    5.556  1.36E-07  4.42E-05  4.47E-15  1.45E-12  0.00E+00  0.00E+00  1.36E-07  4.42E-05  8.34E-03  0.00000
  iv         1805
1                                             RADIANCE(WATTS/CM2-STER-XXX)
0  FREQ   WAVLEN    PATH THERMAL      SURFACE EMISSION    SURFACE REFLECTED     TOTAL RADIANCE   INTEGRAL    TOTAL
  (CM-1) (MICRN)    (CM-1)   (MICRN)    (CM-1)   (MICRN)    (CM-1)   (MICRN)    (CM-1)   (MICRN)    (CM-1)   TRANS

   1802.    5.549  1.74E-07  5.64E-05  5.00E-13  1.62E-10  0.00E+00  0.00E+00  1.74E-07  5.64E-05  8.34E-03  0.00000
   1804.    5.543  2.49E-07  8.09E-05  2.23E-12  7.25E-10  0.00E+00  0.00E+00  2.49E-07  8.09E-05  8.34E-03  0.00000
   1806.    5.537  2.63E-07  8.57E-05  1.86E-12  6.06E-10  0.00E+00  0.00E+00  2.63E-07  8.57E-05  8.34E-03  0.00000
   1808.    5.531  2.31E-07  7.55E-05  4.04E-13  1.32E-10  0.00E+00  0.00E+00  2.31E-07  7.55E-05  8.34E-03  0.00000
   1810.    5.525  1.71E-07  5.62E-05  2.37E-13  7.76E-11  0.00E+00  0.00E+00  1.71E-07  5.62E-05  8.34E-03  0.00000
   1812.    5.519  1.92E-07  6.30E-05  3.27E-11  1.07E-08  0.00E+00  0.00E+00  1.92E-07  6.30E-05  8.34E-03  0.00004
   1814.    5.513  3.06E-07  1.01E-04  3.45E-10  1.14E-07  0.00E+00  0.00E+00  3.06E-07  1.01E-04  8.34E-03  0.00043
   1816.    5.507  3.14E-07  1.04E-04  4.34E-10  1.43E-07  0.00E+00  0.00E+00  3.15E-07  1.04E-04  8.34E-03  0.00054
   1818.    5.501  3.21E-07  1.06E-04  8.69E-10  2.87E-07  0.00E+00  0.00E+00  3.22E-07  1.07E-04  8.34E-03  0.00109
   1820.    5.495  3.33E-07  1.10E-04  1.09E-09  3.60E-07  0.00E+00  0.00E+00  3.35E-07  1.11E-04  8.34E-03  0.00136
   1822.    5.488  2.57E-07  8.55E-05  1.75E-10  5.80E-08  0.00E+00  0.00E+00  2.58E-07  8.55E-05  8.34E-03  0.00022
   1824.    5.482  1.70E-07  5.67E-05  9.45E-14  3.14E-11  0.00E+00  0.00E+00  1.70E-07  5.67E-05  8.34E-03  0.00000
   1826.    5.476  1.47E-07  4.91E-05  6.80E-15  2.27E-12  0.00E+00  0.00E+00  1.47E-07  4.91E-05  8.34E-03  0.00000
   1828.    5.470  1.48E-07  4.95E-05  1.96E-19  6.55E-17  0.00E+00  0.00E+00  1.48E-07  4.95E-05  8.34E-03  0.00000
   1830.    5.464  1.08E-07  3.63E-05  8.48E-20  2.84E-17  0.00E+00  0.00E+00  1.08E-07  3.63E-05  8.34E-03  0.00000
   1832.    5.459  1.78E-07  5.97E-05  1.25E-12  4.18E-10  0.00E+00  0.00E+00  1.78E-07  5.97E-05  8.35E-03  0.00000
   1834.    5.453  2.43E-07  8.18E-05  5.50E-12  1.85E-09  0.00E+00  0.00E+00  2.43E-07  8.18E-05  8.35E-03  0.00001
   1836.    5.447  2.12E-07  7.15E-05  3.56E-12  1.20E-09  0.00E+00  0.00E+00  2.12E-07  7.15E-05  8.35E-03  0.00000
   1838.    5.441  2.10E-07  7.11E-05  6.57E-12  2.22E-09  0.00E+00  0.00E+00  2.10E-07  7.11E-05  8.35E-03  0.00001
   1840.    5.435  2.49E-07  8.44E-05  1.34E-11  4.55E-09  0.00E+00  0.00E+00  2.49E-07  8.44E-05  8.35E-03  0.00002
   1842.    5.429  1.75E-07  5.95E-05  3.73E-12  1.26E-09  0.00E+00  0.00E+00  1.75E-07  5.95E-05  8.35E-03  0.00001
   1844.    5.423  9.81E-08  3.34E-05  1.70E-15  5.77E-13  0.00E+00  0.00E+00  9.81E-08  3.34E-05  8.35E-03  0.00000
   1846.    5.417  1.22E-07  4.16E-05  2.00E-14  6.83E-12  0.00E+00  0.00E+00  1.22E-07  4.16E-05  8.35E-03  0.00000
   1848.    5.411  1.83E-07  6.23E-05  6.99E-11  2.39E-08  0.00E+00  0.00E+00  1.83E-07  6.24E-05  8.35E-03  0.00010
   1850.    5.405  2.78E-07  9.52E-05  1.30E-09  4.46E-07  0.00E+00  0.00E+00  2.79E-07  9.56E-05  8.35E-03  0.00182
   1852.    5.400  3.18E-07  1.09E-04  4.72E-09  1.62E-06  0.00E+00  0.00E+00  3.23E-07  1.11E-04  8.35E-03  0.00662
   1854.    5.394  3.42E-07  1.17E-04  1.32E-08  4.53E-06  0.00E+00  0.00E+00  3.55E-07  1.22E-04  8.35E-03  0.01857
   1856.    5.388  3.39E-07  1.17E-04  1.46E-08  5.03E-06  0.00E+00  0.00E+00  3.54E-07  1.22E-04  8.35E-03  0.02065
   1858.    5.382  2.84E-07  9.81E-05  5.12E-09  1.77E-06  0.00E+00  0.00E+00  2.89E-07  9.99E-05  8.35E-03  0.00727
   1860.    5.376  2.65E-07  9.16E-05  1.38E-09  4.79E-07  0.00E+00  0.00E+00  2.66E-07  9.21E-05  8.35E-03  0.00199
   1862.    5.371  2.93E-07  1.02E-04  2.69E-09  9.31E-07  0.00E+00  0.00E+00  2.96E-07  1.03E-04  8.35E-03  0.00388
   1864.    5.365  2.61E-07  9.06E-05  1.46E-09  5.07E-07  0.00E+00  0.00E+00  2.62E-07  9.11E-05  8.35E-03  0.00211
   1866.    5.359  1.55E-07  5.39E-05  5.10E-11  1.78E-08  0.00E+00  0.00E+00  1.55E-07  5.39E-05  8.35E-03  0.00007
   1868.    5.353  8.81E-08  3.08E-05  2.42E-15  8.44E-13  0.00E+00  0.00E+00  8.81E-08  3.08E-05  8.35E-03  0.00000
   1870.    5.348  1.19E-07  4.17E-05  6.20E-12  2.17E-09  0.00E+00  0.00E+00  1.19E-07  4.17E-05  8.35E-03  0.00001
   1872.    5.342  2.41E-07  8.43E-05  2.37E-09  8.30E-07  0.00E+00  0.00E+00  2.43E-07  8.51E-05  8.35E-03  0.00356
   1874.    5.336  3.31E-07  1.16E-04  1.70E-08  5.97E-06  0.00E+00  0.00E+00  3.48E-07  1.22E-04  8.35E-03  0.02568
   1876.    5.330  3.41E-07  1.20E-04  3.39E-08  1.19E-05  0.00E+00  0.00E+00  3.74E-07  1.32E-04  8.36E-03  0.05147
   1878.    5.325  3.27E-07  1.15E-04  3.98E-08  1.41E-05  0.00E+00  0.00E+00  3.67E-07  1.29E-04  8.36E-03  0.06079
   1880.    5.319  3.27E-07  1.15E-04  5.02E-08  1.77E-05  0.00E+00  0.00E+00  3.77E-07  1.33E-04  8.36E-03  0.07720
   1882.    5.313  3.29E-07  1.16E-04  6.10E-08  2.16E-05  0.00E+00  0.00E+00  3.90E-07  1.38E-04  8.36E-03  0.09424
   1884.    5.308  2.59E-07  9.19E-05  1.99E-08  7.07E-06  0.00E+00  0.00E+00  2.79E-07  9.89E-05  8.36E-03  0.03088
   1886.    5.302  2.50E-07  8.91E-05  1.88E-09  6.68E-07  0.00E+00  0.00E+00  2.52E-07  8.98E-05  8.36E-03  0.00295
   1888.    5.297  2.16E-07  7.68E-05  1.33E-09  4.73E-07  0.00E+00  0.00E+00  2.17E-07  7.73E-05  8.36E-03  0.00209
   1890.    5.291  1.50E-07  5.36E-05  1.51E-10  5.38E-08  0.00E+00  0.00E+00  1.50E-07  5.37E-05  8.36E-03  0.00024
   1892.    5.285  2.27E-07  8.11E-05  6.88E-10  2.46E-07  0.00E+00  0.00E+00  2.27E-07  8.14E-05  8.36E-03  0.00110
   1894.    5.280  2.06E-07  7.40E-05  5.37E-10  1.92E-07  0.00E+00  0.00E+00  2.07E-07  7.42E-05  8.36E-03  0.00086
   1896.    5.274  2.03E-07  7.30E-05  5.25E-09  1.89E-06  0.00E+00  0.00E+00  2.08E-07  7.49E-05  8.36E-03  0.00857
   1898.    5.269  2.91E-07  1.05E-04  4.42E-08  1.59E-05  0.00E+00  0.00E+00  3.35E-07  1.21E-04  8.36E-03  0.07240
   1900.    5.263  3.04E-07  1.10E-04  8.55E-08  3.09E-05  0.00E+00  0.00E+00  3.90E-07  1.41E-04  8.36E-03  0.14064
  iv         1905
1                                             RADIANCE(WATTS/CM2-STER-XXX)
0  FREQ   WAVLEN    PATH THERMAL      SURFACE EMISSION    SURFACE REFLECTED     TOTAL RADIANCE   INTEGRAL    TOTAL
  (CM-1) (MICRN)    (CM-1)   (MICRN)    (CM-1)   (MICRN)    (CM-1)   (MICRN)    (CM-1)   (MICRN)    (CM-1)   TRANS

   1902.    5.258  2.82E-07  1.02E-04  5.13E-08  1.86E-05  0.00E+00  0.00E+00  3.33E-07  1.21E-04  8.36E-03  0.08476
   1904.    5.252  2.46E-07  8.93E-05  1.55E-08  5.61E-06  0.00E+00  0.00E+00  2.62E-07  9.49E-05  8.36E-03  0.02574
   1906.    5.247  2.32E-07  8.41E-05  7.47E-09  2.71E-06  0.00E+00  0.00E+00  2.39E-07  8.69E-05  8.36E-03  0.01253
   1908.    5.241  1.58E-07  5.75E-05  2.29E-09  8.34E-07  0.00E+00  0.00E+00  1.60E-07  5.84E-05  8.36E-03  0.00385
   1910.    5.236  1.61E-07  5.87E-05  2.05E-09  7.46E-07  0.00E+00  0.00E+00  1.63E-07  5.95E-05  8.36E-03  0.00350
   1912.    5.230  2.49E-07  9.12E-05  1.29E-08  4.70E-06  0.00E+00  0.00E+00  2.62E-07  9.59E-05  8.37E-03  0.02210
   1914.    5.225  2.68E-07  9.81E-05  1.45E-08  5.32E-06  0.00E+00  0.00E+00  2.82E-07  1.03E-04  8.37E-03  0.02502
   1916.    5.219  2.07E-07  7.61E-05  3.74E-09  1.37E-06  0.00E+00  0.00E+00  2.11E-07  7.75E-05  8.37E-03  0.00646
   1918.    5.214  1.20E-07  4.40E-05  1.10E-10  4.04E-08  0.00E+00  0.00E+00  1.20E-07  4.40E-05  8.37E-03  0.00019
   1920.    5.208  1.46E-07  5.39E-05  7.42E-12  2.73E-09  0.00E+00  0.00E+00  1.46E-07  5.39E-05  8.37E-03  0.00001
   1922.    5.203  1.36E-07  5.03E-05  6.72E-12  2.48E-09  0.00E+00  0.00E+00  1.36E-07  5.03E-05  8.37E-03  0.00001
   1924.    5.198  1.60E-07  5.94E-05  4.12E-09  1.53E-06  0.00E+00  0.00E+00  1.65E-07  6.09E-05  8.37E-03  0.00741
   1926.    5.192  2.57E-07  9.54E-05  3.60E-08  1.33E-05  0.00E+00  0.00E+00  2.93E-07  1.09E-04  8.37E-03  0.06484
   1928.    5.187  2.69E-07  1.00E-04  1.02E-07  3.80E-05  0.00E+00  0.00E+00  3.71E-07  1.38E-04  8.37E-03  0.18523
   1930.    5.181  2.49E-07  9.28E-05  1.47E-07  5.49E-05  0.00E+00  0.00E+00  3.96E-07  1.48E-04  8.37E-03  0.26876
   1932.    5.176  2.17E-07  8.11E-05  7.60E-08  2.84E-05  0.00E+00  0.00E+00  2.93E-07  1.09E-04  8.37E-03  0.13897
   1934.    5.171  2.17E-07  8.11E-05  5.76E-08  2.16E-05  0.00E+00  0.00E+00  2.74E-07  1.03E-04  8.37E-03  0.10685
   1936.    5.165  2.49E-07  9.34E-05  1.17E-07  4.38E-05  0.00E+00  0.00E+00  3.66E-07  1.37E-04  8.37E-03  0.21743
   1938.    5.160  2.66E-07  9.98E-05  8.60E-08  3.23E-05  0.00E+00  0.00E+00  3.52E-07  1.32E-04  8.37E-03  0.16084
   1940.    5.155  2.43E-07  9.15E-05  3.06E-08  1.15E-05  0.00E+00  0.00E+00  2.74E-07  1.03E-04  8.37E-03  0.05747
   1942.    5.149  1.47E-07  5.55E-05  2.56E-09  9.67E-07  0.00E+00  0.00E+00  1.50E-07  5.64E-05  8.37E-03  0.00484
   1944.    5.144  1.24E-07  4.69E-05  6.00E-12  2.27E-09  0.00E+00  0.00E+00  1.24E-07  4.69E-05  8.37E-03  0.00001
   1946.    5.139  1.59E-07  6.04E-05  8.01E-09  3.03E-06  0.00E+00  0.00E+00  1.67E-07  6.34E-05  8.37E-03  0.01554
   1948.    5.133  2.32E-07  8.79E-05  4.88E-08  1.85E-05  0.00E+00  0.00E+00  2.80E-07  1.06E-04  8.37E-03  0.09494
   1950.    5.128  2.43E-07  9.23E-05  1.09E-07  4.16E-05  0.00E+00  0.00E+00  3.52E-07  1.34E-04  8.37E-03  0.21405
   1952.    5.123  2.23E-07  8.50E-05  1.48E-07  5.63E-05  0.00E+00  0.00E+00  3.71E-07  1.41E-04  8.38E-03  0.29043
   1954.    5.118  2.16E-07  8.24E-05  6.71E-08  2.56E-05  0.00E+00  0.00E+00  2.83E-07  1.08E-04  8.38E-03  0.13236
   1956.    5.112  2.18E-07  8.34E-05  3.73E-08  1.43E-05  0.00E+00  0.00E+00  2.55E-07  9.77E-05  8.38E-03  0.07457
   1958.    5.107  2.24E-07  8.58E-05  1.15E-07  4.42E-05  0.00E+00  0.00E+00  3.39E-07  1.30E-04  8.38E-03  0.23167
   1960.    5.102  2.10E-07  8.08E-05  1.08E-07  4.15E-05  0.00E+00  0.00E+00  3.18E-07  1.22E-04  8.38E-03  0.21783
   1962.    5.097  2.23E-07  8.58E-05  7.69E-08  2.96E-05  0.00E+00  0.00E+00  3.00E-07  1.15E-04  8.38E-03  0.15673
   1964.    5.092  2.24E-07  8.65E-05  9.07E-08  3.50E-05  0.00E+00  0.00E+00  3.15E-07  1.21E-04  8.38E-03  0.18560
   1966.    5.086  1.63E-07  6.32E-05  2.14E-08  8.26E-06  0.00E+00  0.00E+00  1.85E-07  7.14E-05  8.38E-03  0.04387
   1968.    5.081  1.68E-07  6.51E-05  2.40E-08  9.28E-06  0.00E+00  0.00E+00  1.92E-07  7.44E-05  8.38E-03  0.05007
   1970.    5.076  2.03E-07  7.90E-05  1.32E-07  5.13E-05  0.00E+00  0.00E+00  3.36E-07  1.30E-04  8.38E-03  0.27719
   1972.    5.071  1.55E-07  6.02E-05  2.47E-07  9.60E-05  0.00E+00  0.00E+00  4.01E-07  1.56E-04  8.38E-03  0.52039
   1974.    5.066  1.38E-07  5.36E-05  2.60E-07  1.01E-04  0.00E+00  0.00E+00  3.97E-07  1.55E-04  8.38E-03  0.55043
   1976.    5.061  1.59E-07  6.20E-05  1.99E-07  7.76E-05  0.00E+00  0.00E+00  3.57E-07  1.40E-04  8.38E-03  0.42427
   1978.    5.056  1.38E-07  5.41E-05  2.49E-07  9.74E-05  0.00E+00  0.00E+00  3.87E-07  1.51E-04  8.38E-03  0.53607
   1980.    5.051  1.24E-07  4.88E-05  2.75E-07  1.08E-04  0.00E+00  0.00E+00  4.00E-07  1.57E-04  8.38E-03  0.59659
   1982.    5.045  1.38E-07  5.43E-05  2.51E-07  9.85E-05  0.00E+00  0.00E+00  3.89E-07  1.53E-04  8.39E-03  0.54727
   1984.    5.040  1.52E-07  5.97E-05  2.30E-07  9.06E-05  0.00E+00  0.00E+00  3.82E-07  1.50E-04  8.39E-03  0.50519
   1986.    5.035  1.84E-07  7.26E-05  1.30E-07  5.12E-05  0.00E+00  0.00E+00  3.14E-07  1.24E-04  8.39E-03  0.28659
   1988.    5.030  1.82E-07  7.18E-05  2.66E-08  1.05E-05  0.00E+00  0.00E+00  2.08E-07  8.23E-05  8.39E-03  0.05900
   1990.    5.025  1.73E-07  6.87E-05  7.14E-09  2.83E-06  0.00E+00  0.00E+00  1.81E-07  7.15E-05  8.39E-03  0.01603
   1992.    5.020  1.30E-07  5.18E-05  4.04E-09  1.60E-06  0.00E+00  0.00E+00  1.34E-07  5.34E-05  8.39E-03  0.00912
   1994.    5.015  1.72E-07  6.82E-05  5.45E-08  2.17E-05  0.00E+00  0.00E+00  2.26E-07  8.99E-05  8.39E-03  0.12446
   1996.    5.010  1.87E-07  7.44E-05  1.43E-07  5.69E-05  0.00E+00  0.00E+00  3.29E-07  1.31E-04  8.39E-03  0.32726
   1998.    5.005  1.82E-07  7.26E-05  1.03E-07  4.09E-05  0.00E+00  0.00E+00  2.84E-07  1.14E-04  8.39E-03  0.23621
   2000.    5.000  1.54E-07  6.14E-05  1.52E-07  6.08E-05  0.00E+00  0.00E+00  3.06E-07  1.22E-04  8.39E-03  0.35399
  iv         2005
1                                             RADIANCE(WATTS/CM2-STER-XXX)
0  FREQ   WAVLEN    PATH THERMAL      SURFACE EMISSION    SURFACE REFLECTED     TOTAL RADIANCE   INTEGRAL    TOTAL
  (CM-1) (MICRN)    (CM-1)   (MICRN)    (CM-1)   (MICRN)    (CM-1)   (MICRN)    (CM-1)   (MICRN)    (CM-1)   TRANS

   2002.    4.995  1.10E-07  4.39E-05  2.67E-07  1.07E-04  0.00E+00  0.00E+00  3.76E-07  1.51E-04  8.39E-03  0.62402
   2004.    4.990  9.65E-08  3.88E-05  2.84E-07  1.14E-04  0.00E+00  0.00E+00  3.80E-07  1.53E-04  8.39E-03  0.66791
   2006.    4.985  1.38E-07  5.57E-05  1.97E-07  7.95E-05  0.00E+00  0.00E+00  3.36E-07  1.35E-04  8.39E-03  0.46764
   2008.    4.980  1.73E-07  6.97E-05  8.91E-08  3.59E-05  0.00E+00  0.00E+00  2.62E-07  1.06E-04  8.39E-03  0.21271
   2010.    4.975  1.47E-07  5.92E-05  1.57E-07  6.36E-05  0.00E+00  0.00E+00  3.04E-07  1.23E-04  8.39E-03  0.37956
   2012.    4.970  1.15E-07  4.64E-05  2.43E-07  9.82E-05  0.00E+00  0.00E+00  3.57E-07  1.45E-04  8.39E-03  0.58793
   2014.    4.965  1.40E-07  5.67E-05  1.81E-07  7.34E-05  0.00E+00  0.00E+00  3.21E-07  1.30E-04  8.39E-03  0.44118
   2016.    4.960  1.47E-07  5.96E-05  4.91E-08  1.99E-05  0.00E+00  0.00E+00  1.96E-07  7.95E-05  8.40E-03  0.12003
   2018.    4.955  1.37E-07  5.60E-05  3.71E-09  1.51E-06  0.00E+00  0.00E+00  1.41E-07  5.75E-05  8.40E-03  0.00924
   2020.    4.950  1.64E-07  6.71E-05  6.96E-08  2.84E-05  0.00E+00  0.00E+00  2.34E-07  9.55E-05  8.40E-03  0.17438
   2022.    4.946  1.58E-07  6.48E-05  1.29E-07  5.27E-05  0.00E+00  0.00E+00  2.87E-07  1.17E-04  8.40E-03  0.32337
   2024.    4.941  1.55E-07  6.33E-05  1.36E-07  5.57E-05  0.00E+00  0.00E+00  2.90E-07  1.19E-04  8.40E-03  0.34404
   2026.    4.936  1.41E-07  5.77E-05  1.43E-07  5.87E-05  0.00E+00  0.00E+00  2.84E-07  1.16E-04  8.40E-03  0.36408
   2028.    4.931  1.10E-07  4.54E-05  1.86E-07  7.66E-05  0.00E+00  0.00E+00  2.97E-07  1.22E-04  8.40E-03  0.47850
   2030.    4.926  6.90E-08  2.84E-05  2.79E-07  1.15E-04  0.00E+00  0.00E+00  3.48E-07  1.44E-04  8.40E-03  0.72224
   2032.    4.921  6.53E-08  2.69E-05  2.80E-07  1.16E-04  0.00E+00  0.00E+00  3.45E-07  1.42E-04  8.40E-03  0.72774
   2034.    4.916  9.16E-08  3.79E-05  2.32E-07  9.59E-05  0.00E+00  0.00E+00  3.24E-07  1.34E-04  8.40E-03  0.60773
   2036.    4.912  9.46E-08  3.92E-05  2.08E-07  8.62E-05  0.00E+00  0.00E+00  3.03E-07  1.25E-04  8.40E-03  0.54857
   2038.    4.907  1.17E-07  4.86E-05  1.52E-07  6.33E-05  0.00E+00  0.00E+00  2.69E-07  1.12E-04  8.40E-03  0.40493
   2040.    4.902  1.32E-07  5.50E-05  9.31E-08  3.87E-05  0.00E+00  0.00E+00  2.25E-07  9.37E-05  8.40E-03  0.24869
   2042.    4.897  1.50E-07  6.25E-05  3.06E-08  1.27E-05  0.00E+00  0.00E+00  1.80E-07  7.52E-05  8.40E-03  0.08237
   2044.    4.892  1.30E-07  5.43E-05  8.89E-08  3.71E-05  0.00E+00  0.00E+00  2.19E-07  9.14E-05  8.40E-03  0.24200
   2046.    4.888  1.10E-07  4.61E-05  1.40E-07  5.86E-05  0.00E+00  0.00E+00  2.50E-07  1.05E-04  8.40E-03  0.38322
   2048.    4.883  9.29E-08  3.90E-05  1.55E-07  6.49E-05  0.00E+00  0.00E+00  2.48E-07  1.04E-04  8.40E-03  0.42650
   2050.    4.878  7.17E-08  3.01E-05  1.77E-07  7.45E-05  0.00E+00  0.00E+00  2.49E-07  1.05E-04  8.40E-03  0.49154
   2052.    4.873  7.52E-08  3.17E-05  1.59E-07  6.72E-05  0.00E+00  0.00E+00  2.35E-07  9.88E-05  8.40E-03  0.44563
   2054.    4.869  7.59E-08  3.20E-05  1.54E-07  6.48E-05  0.00E+00  0.00E+00  2.30E-07  9.69E-05  8.40E-03  0.43274
   2056.    4.864  6.92E-08  2.92E-05  1.62E-07  6.86E-05  0.00E+00  0.00E+00  2.32E-07  9.79E-05  8.41E-03  0.46040
   2058.    4.859  7.76E-08  3.29E-05  1.38E-07  5.84E-05  0.00E+00  0.00E+00  2.16E-07  9.13E-05  8.41E-03  0.39363
   2060.    4.854  9.42E-08  4.00E-05  8.93E-08  3.79E-05  0.00E+00  0.00E+00  1.84E-07  7.79E-05  8.41E-03  0.25682
   2062.    4.850  9.55E-08  4.06E-05  8.94E-08  3.80E-05  0.00E+00  0.00E+00  1.85E-07  7.86E-05  8.41E-03  0.25910
   2064.    4.845  9.84E-08  4.19E-05  4.00E-08  1.70E-05  0.00E+00  0.00E+00  1.38E-07  5.90E-05  8.41E-03  0.11610
   2066.    4.840  9.61E-08  4.10E-05  4.96E-08  2.12E-05  0.00E+00  0.00E+00  1.46E-07  6.22E-05  8.41E-03  0.14647
   2068.    4.836  7.90E-08  3.38E-05  1.23E-07  5.27E-05  0.00E+00  0.00E+00  2.02E-07  8.65E-05  8.41E-03  0.36525
   2070.    4.831  6.14E-08  2.63E-05  1.57E-07  6.71E-05  0.00E+00  0.00E+00  2.18E-07  9.34E-05  8.41E-03  0.46689
   2072.    4.826  7.34E-08  3.15E-05  1.38E-07  5.91E-05  0.00E+00  0.00E+00  2.11E-07  9.07E-05  8.41E-03  0.41327
   2074.    4.822  8.97E-08  3.86E-05  1.11E-07  4.79E-05  0.00E+00  0.00E+00  2.01E-07  8.64E-05  8.41E-03  0.33653
   2076.    4.817  6.60E-08  2.85E-05  8.27E-08  3.56E-05  0.00E+00  0.00E+00  1.49E-07  6.41E-05  8.41E-03  0.25127
   2078.    4.812  5.42E-08  2.34E-05  3.99E-08  1.72E-05  0.00E+00  0.00E+00  9.41E-08  4.06E-05  8.41E-03  0.12251
   2080.    4.808  6.95E-08  3.01E-05  1.02E-07  4.42E-05  0.00E+00  0.00E+00  1.72E-07  7.43E-05  8.41E-03  0.31646
   2082.    4.803  6.32E-08  2.74E-05  1.47E-07  6.39E-05  0.00E+00  0.00E+00  2.11E-07  9.13E-05  8.41E-03  0.45912
   2084.    4.798  4.88E-08  2.12E-05  1.77E-07  7.70E-05  0.00E+00  0.00E+00  2.26E-07  9.82E-05  8.41E-03  0.55582
   2086.    4.794  6.29E-08  2.74E-05  1.54E-07  6.70E-05  0.00E+00  0.00E+00  2.17E-07  9.44E-05  8.41E-03  0.48607
   2088.    4.789  8.47E-08  3.69E-05  1.12E-07  4.90E-05  0.00E+00  0.00E+00  1.97E-07  8.59E-05  8.41E-03  0.35687
   2090.    4.785  9.34E-08  4.08E-05  8.04E-08  3.51E-05  0.00E+00  0.00E+00  1.74E-07  7.59E-05  8.41E-03  0.25734
   2092.    4.780  8.06E-08  3.53E-05  1.02E-07  4.48E-05  0.00E+00  0.00E+00  1.83E-07  8.01E-05  8.41E-03  0.33065
   2094.    4.776  6.09E-08  2.67E-05  1.29E-07  5.67E-05  0.00E+00  0.00E+00  1.90E-07  8.35E-05  8.41E-03  0.42090
   2096.    4.771  5.14E-08  2.26E-05  1.67E-07  7.32E-05  0.00E+00  0.00E+00  2.18E-07  9.58E-05  8.41E-03  0.54568
   2098.    4.766  4.80E-08  2.11E-05  1.75E-07  7.68E-05  0.00E+00  0.00E+00  2.22E-07  9.79E-05  8.41E-03  0.57536
   2100.    4.762  4.96E-08  2.19E-05  1.70E-07  7.48E-05  0.00E+00  0.00E+00  2.19E-07  9.66E-05  8.41E-03  0.56295
  iv         2105
1                                             RADIANCE(WATTS/CM2-STER-XXX)
0  FREQ   WAVLEN    PATH THERMAL      SURFACE EMISSION    SURFACE REFLECTED     TOTAL RADIANCE   INTEGRAL    TOTAL
  (CM-1) (MICRN)    (CM-1)   (MICRN)    (CM-1)   (MICRN)    (CM-1)   (MICRN)    (CM-1)   (MICRN)    (CM-1)   TRANS

   2102.    4.757  3.42E-08  1.51E-05  1.96E-07  8.67E-05  0.00E+00  0.00E+00  2.30E-07  1.02E-04  8.41E-03  0.65676
   2104.    4.753  3.07E-08  1.36E-05  1.99E-07  8.83E-05  0.00E+00  0.00E+00  2.30E-07  1.02E-04  8.41E-03  0.67164
   2106.    4.748  4.99E-08  2.22E-05  1.58E-07  7.02E-05  0.00E+00  0.00E+00  2.08E-07  9.23E-05  8.42E-03  0.53666
   2108.    4.744  4.55E-08  2.02E-05  1.60E-07  7.13E-05  0.00E+00  0.00E+00  2.06E-07  9.15E-05  8.42E-03  0.54888
   2110.    4.739  2.79E-08  1.24E-05  2.02E-07  8.99E-05  0.00E+00  0.00E+00  2.30E-07  1.02E-04  8.42E-03  0.69568
   2112.    4.735  3.73E-08  1.66E-05  2.05E-07  9.16E-05  0.00E+00  0.00E+00  2.43E-07  1.08E-04  8.42E-03  0.71165
   2114.    4.730  7.86E-08  3.51E-05  1.15E-07  5.15E-05  0.00E+00  0.00E+00  1.94E-07  8.66E-05  8.42E-03  0.40138
   2116.    4.726  7.07E-08  3.16E-05  1.12E-07  5.00E-05  0.00E+00  0.00E+00  1.82E-07  8.16E-05  8.42E-03  0.39344
   2118.    4.721  2.94E-08  1.32E-05  1.77E-07  7.92E-05  0.00E+00  0.00E+00  2.06E-07  9.24E-05  8.42E-03  0.62588
   2120.    4.717  2.98E-08  1.34E-05  1.67E-07  7.52E-05  0.00E+00  0.00E+00  1.97E-07  8.86E-05  8.42E-03  0.59694
   2122.    4.713  4.08E-08  1.84E-05  1.49E-07  6.73E-05  0.00E+00  0.00E+00  1.90E-07  8.57E-05  8.42E-03  0.53751
   2124.    4.708  4.51E-08  2.03E-05  1.43E-07  6.45E-05  0.00E+00  0.00E+00  1.88E-07  8.49E-05  8.42E-03  0.51816
   2126.    4.704  2.98E-08  1.35E-05  1.75E-07  7.90E-05  0.00E+00  0.00E+00  2.04E-07  9.24E-05  8.42E-03  0.63783
   2128.    4.699  2.49E-08  1.13E-05  1.81E-07  8.21E-05  0.00E+00  0.00E+00  2.06E-07  9.33E-05  8.42E-03  0.66569
   2130.    4.695  3.09E-08  1.40E-05  1.74E-07  7.91E-05  0.00E+00  0.00E+00  2.05E-07  9.31E-05  8.42E-03  0.64586
   2132.    4.690  1.76E-08  8.02E-06  2.23E-07  1.01E-04  0.00E+00  0.00E+00  2.41E-07  1.09E-04  8.42E-03  0.83162
   2134.    4.686  2.38E-08  1.08E-05  2.21E-07  1.01E-04  0.00E+00  0.00E+00  2.45E-07  1.12E-04  8.42E-03  0.83086
   2136.    4.682  6.99E-08  3.19E-05  1.35E-07  6.14E-05  0.00E+00  0.00E+00  2.05E-07  9.34E-05  8.42E-03  0.50871
   2138.    4.677  8.68E-08  3.97E-05  1.09E-07  5.00E-05  0.00E+00  0.00E+00  1.96E-07  8.97E-05  8.42E-03  0.41693
   2140.    4.673  5.39E-08  2.47E-05  1.72E-07  7.88E-05  0.00E+00  0.00E+00  2.26E-07  1.04E-04  8.42E-03  0.66155
   2142.    4.669  2.27E-08  1.04E-05  2.24E-07  1.03E-04  0.00E+00  0.00E+00  2.46E-07  1.13E-04  8.42E-03  0.86520
   2144.    4.664  3.53E-08  1.62E-05  1.97E-07  9.05E-05  0.00E+00  0.00E+00  2.32E-07  1.07E-04  8.42E-03  0.76676
   2146.    4.660  5.45E-08  2.51E-05  1.64E-07  7.57E-05  0.00E+00  0.00E+00  2.19E-07  1.01E-04  8.42E-03  0.64497
   2148.    4.655  3.97E-08  1.83E-05  1.90E-07  8.77E-05  0.00E+00  0.00E+00  2.30E-07  1.06E-04  8.42E-03  0.75129
   2150.    4.651  2.22E-08  1.03E-05  2.16E-07  9.98E-05  0.00E+00  0.00E+00  2.38E-07  1.10E-04  8.42E-03  0.85961
   2152.    4.647  3.14E-08  1.45E-05  1.96E-07  9.08E-05  0.00E+00  0.00E+00  2.27E-07  1.05E-04  8.42E-03  0.78619
   2154.    4.643  3.05E-08  1.41E-05  1.95E-07  9.06E-05  0.00E+00  0.00E+00  2.26E-07  1.05E-04  8.43E-03  0.78927
   2156.    4.638  2.64E-08  1.23E-05  2.02E-07  9.41E-05  0.00E+00  0.00E+00  2.29E-07  1.06E-04  8.43E-03  0.82328
   2158.    4.634  2.24E-08  1.04E-05  2.06E-07  9.59E-05  0.00E+00  0.00E+00  2.28E-07  1.06E-04  8.43E-03  0.84467
   2160.    4.630  2.81E-08  1.31E-05  1.95E-07  9.08E-05  0.00E+00  0.00E+00  2.23E-07  1.04E-04  8.43E-03  0.80299
   2162.    4.625  5.27E-08  2.46E-05  1.50E-07  6.99E-05  0.00E+00  0.00E+00  2.02E-07  9.45E-05  8.43E-03  0.62170
   2164.    4.621  3.38E-08  1.58E-05  1.80E-07  8.43E-05  0.00E+00  0.00E+00  2.14E-07  1.00E-04  8.43E-03  0.75503
   2166.    4.617  1.63E-08  7.65E-06  2.07E-07  9.73E-05  0.00E+00  0.00E+00  2.24E-07  1.05E-04  8.43E-03  0.87569
   2168.    4.613  1.41E-08  6.65E-06  2.09E-07  9.81E-05  0.00E+00  0.00E+00  2.23E-07  1.05E-04  8.43E-03  0.88773
   2170.    4.608  2.07E-08  9.73E-06  1.95E-07  9.19E-05  0.00E+00  0.00E+00  2.16E-07  1.02E-04  8.43E-03  0.83598
   2172.    4.604  2.49E-08  1.17E-05  1.87E-07  8.83E-05  0.00E+00  0.00E+00  2.12E-07  1.00E-04  8.43E-03  0.80790
   2174.    4.600  1.66E-08  7.82E-06  1.99E-07  9.42E-05  0.00E+00  0.00E+00  2.16E-07  1.02E-04  8.43E-03  0.86626
   2176.    4.596  1.45E-08  6.87E-06  2.00E-07  9.48E-05  0.00E+00  0.00E+00  2.15E-07  1.02E-04  8.43E-03  0.87696
   2178.    4.591  1.42E-08  6.72E-06  1.99E-07  9.43E-05  0.00E+00  0.00E+00  2.13E-07  1.01E-04  8.43E-03  0.87697
   2180.    4.587  2.33E-08  1.11E-05  1.82E-07  8.65E-05  0.00E+00  0.00E+00  2.05E-07  9.76E-05  8.43E-03  0.80880
   2182.    4.583  2.31E-08  1.10E-05  1.81E-07  8.60E-05  0.00E+00  0.00E+00  2.04E-07  9.70E-05  8.43E-03  0.80836
   2184.    4.579  2.15E-08  1.03E-05  1.82E-07  8.69E-05  0.00E+00  0.00E+00  2.04E-07  9.71E-05  8.43E-03  0.82063
   2186.    4.575  3.42E-08  1.63E-05  1.60E-07  7.64E-05  0.00E+00  0.00E+00  1.94E-07  9.28E-05  8.43E-03  0.72600
   2188.    4.570  2.98E-08  1.43E-05  1.65E-07  7.89E-05  0.00E+00  0.00E+00  1.95E-07  9.32E-05  8.43E-03  0.75461
   2190.    4.566  1.85E-08  8.86E-06  1.82E-07  8.71E-05  0.00E+00  0.00E+00  2.00E-07  9.60E-05  8.43E-03  0.83701
   2192.    4.562  1.98E-08  9.50E-06  1.78E-07  8.54E-05  0.00E+00  0.00E+00  1.97E-07  9.49E-05  8.43E-03  0.82468
   2194.    4.558  2.16E-08  1.04E-05  1.73E-07  8.32E-05  0.00E+00  0.00E+00  1.94E-07  9.36E-05  8.43E-03  0.80841
   2196.    4.554  1.64E-08  7.92E-06  1.79E-07  8.62E-05  0.00E+00  0.00E+00  1.95E-07  9.42E-05  8.43E-03  0.84247
   2198.    4.550  2.04E-08  9.83E-06  1.71E-07  8.25E-05  0.00E+00  0.00E+00  1.91E-07  9.24E-05  8.43E-03  0.81032
   2200.    4.545  2.61E-08  1.26E-05  1.59E-07  7.72E-05  0.00E+00  0.00E+00  1.86E-07  8.98E-05  8.43E-03  0.76229
0INTEGRATED ABSORPTION FROM    2 TO 2200 CM-1 =   1681.23 CM-1
 AVERAGE TRANSMITTANCE =0.2351

0INTEGRATED RADIANCE =  8.435E-03 WATTS CM-2 STER-1
 MINIMUM RADIANCE    =  1.163E-09 WATTS CM-2 STER-1 (CM-1)-1 AT        2.0 CM-1
 MAXIMUM RADIANCE    =  1.209E-05 WATTS CM-2 STER-1 (CM-1)-1 AT      560.0 CM-1
 BOUNDARY TEMPERATURE =     288.20 K
 BOUNDARY EMISSIVITY =       0.971
0 CARD 5 *****    0


