*****  MODTRAN3 Version 1.3  12/1/95  *****
0 CARD 1  *****T   5    3    1    0    0    0    0    0    0    0    0    0   -1   0.000  -1.00
 co2mx co2rat ch4rat h2orat t_o3rat s_o3rat scalefreon    800.00000       2.4242425       1.0000000       1.0000000       1.0000000       1.0000000       1.0000000    
0 CARD 2  *****    0    0    0    0    0    0     0.000     0.000     0.000     0.000     0.000
0 CARD 3  *****    70.000     0.000   180.000     0.000     0.000     0.000    0
0 CARD 4  *****         2      2200         2         3
0 PROGRAM WILL COMPUTE RADIANCE                
0 ATMOSPHERIC MODEL
          TEMPERATURE =    5     SUBARCTIC   WINTER  
          WATER VAPOR =    5     SUBARCTIC   WINTER  
          OZONE       =    5     SUBARCTIC   WINTER  
                      M4 =     5 M5 =     5 M6 =     5 MDEF =     1
0 SLANT PATH TO SPACE
          H1    =     70.000 KM
          HMIN  =      0.000 KM
          ANGLE =    180.000 DEG
0 FREQUENCY RANGE
             IV1 =         2 CM-1  (   5000.00 MICROMETERS)
             IV2 =      2200 CM-1  (      4.55 MICROMETERS)
             IDV =         2 CM-1
           IFWHM =         3 CM-1
1
  ATMOSPHERIC PROFILES

   I     Z       P       T        N2       CNTMSLF MOL SCAT     N-1     O3 (UV)  O2 (UV)
        (KM)    (MB)    (K)            (MOL/CM2 KM)   (-)       (-)  (ATM CM/KM) (ATM CM/KM)

   1     0.00 1013.000  257.7  1.031E+00 6.442E+18 1.060E+00 3.047E-04 1.908E-03 4.159E+04
   2     1.00  887.800  259.6  7.801E-01 6.442E+18 9.218E-01 2.650E-04 1.909E-03 3.398E+04
   3     2.00  777.500  256.4  6.133E-01 3.954E+18 8.173E-01 2.350E-04 1.908E-03 2.865E+04
   4     3.00  679.800  253.2  4.808E-01 2.070E+18 7.237E-01 2.081E-04 2.001E-03 2.419E+04
   5     4.00  593.200  248.2  3.810E-01 7.525E+17 6.442E-01 1.852E-04 2.094E-03 2.065E+04
   6     5.00  515.800  241.4  3.045E-01 1.790E+17 5.759E-01 1.656E-04 2.188E-03 1.778E+04
   7     6.00  446.700  234.6  2.418E-01 4.297E+16 5.132E-01 1.476E-04 2.280E-03 1.528E+04
   8     7.00  385.300  227.8  1.908E-01 1.305E+16 4.559E-01 1.311E-04 3.304E-03 1.312E+04
   9     8.00  330.800  221.1  1.493E-01 5.413E+14 4.033E-01 1.160E-04 4.191E-03 1.124E+04
  10     9.00  282.900  217.7  1.126E-01 3.158E+14 3.503E-01 1.007E-04 7.350E-03 9.442E+03
  11    10.00  241.800  217.7  8.228E-02 1.042E+14 2.994E-01 8.610E-05 8.975E-03 7.806E+03
  12    11.00  206.700  217.7  6.012E-02 1.904E+13 2.559E-01 7.360E-05 8.951E-03 6.480E+03
  13    12.00  176.600  217.7  4.389E-02 5.003E+12 2.186E-01 6.288E-05 8.740E-03 5.395E+03
  14    13.00  151.000  217.7  3.209E-02 2.012E+12 1.869E-01 5.377E-05 1.214E-02 4.510E+03
  15    14.00  129.100  217.7  2.345E-02 1.504E+12 1.598E-01 4.597E-05 1.438E-02 3.781E+03
  16    15.00  110.300  217.7  1.712E-02 1.122E+12 1.366E-01 3.927E-05 1.638E-02 3.175E+03
  17    16.00   94.310  217.1  1.259E-02 8.432E+11 1.171E-01 3.367E-05 1.755E-02 2.683E+03
  18    17.00   80.580  216.5  9.239E-03 6.325E+11 1.003E-01 2.885E-05 1.905E-02 2.270E+03
  19    18.00   68.820  215.9  6.776E-03 4.740E+11 8.591E-02 2.471E-05 2.103E-02 1.922E+03
  20    19.00   58.750  215.3  4.966E-03 3.548E+11 7.355E-02 2.115E-05 2.278E-02 1.630E+03
  21    20.00   50.140  214.7  3.637E-03 2.653E+11 6.294E-02 1.810E-05 2.327E-02 1.383E+03
  22    21.00   42.770  214.1  2.661E-03 1.982E+11 5.384E-02 1.549E-05 2.152E-02 1.175E+03
  23    22.00   36.470  213.5  1.946E-03 1.479E+11 4.604E-02 1.324E-05 1.932E-02 9.983E+02
  24    23.00   31.090  212.9  1.422E-03 1.103E+11 3.936E-02 1.132E-05 1.770E-02 8.489E+02
  25    24.00   26.490  212.3  1.038E-03 8.219E+10 3.363E-02 9.672E-06 1.546E-02 7.220E+02
  26    25.00   22.560  211.7  7.574E-04 5.995E+10 2.872E-02 8.261E-06 1.349E-02 6.142E+02
  27    30.00   10.200  216.5  1.480E-04 1.172E+10 1.270E-02 3.652E-06 6.852E-03 2.680E+02
  28    35.00    4.701  222.8  2.969E-05 2.350E+09 5.687E-03 1.636E-06 3.524E-03 1.193E+02
  29    40.00    2.243  235.2  6.066E-06 4.801E+08 2.570E-03 7.392E-07 1.516E-03 5.380E+01
  30    45.00    1.113  247.5  1.349E-06 1.068E+08 1.212E-03 3.486E-07 4.966E-04 2.534E+01
  31    50.00    0.572  259.8  3.232E-07 2.507E+07 5.933E-04 1.706E-07 1.542E-04 1.240E+01
  32    70.00    0.040  245.9  1.765E-09 6.085E+04 4.384E-05 1.261E-08 2.191E-06 9.158E-01
  33   100.00    0.000  219.0  2.488E-13 1.261E-01 5.206E-07 1.497E-10 2.081E-08 8.324E-03
1
  ATMOSPHERIC PROFILES

   I     Z       P       T      CNTMFRN     HNO3    AEROSOL 1 AEROSOL 2 AEROSOL 3 AEROSOL 4 AER1*RH   CIRRUS         RH
        (KM)    (MB)    (K)   MOL/CM2 KM ATM CM/KM   (-)       (-)       (-)       (-)       (-)       (-)      (PERCNT)

   1     0.00 1013.000  257.7  4.582E+21 0.000E+00 0.000E+00 0.000E+00 0.000E+00 0.000E+00 0.000E+00 0.000E+00 7.687E+01
   2     1.00  887.800  259.6  3.986E+21 0.000E+00 0.000E+00 0.000E+00 0.000E+00 0.000E+00 0.000E+00 0.000E+00 6.626E+01
   3     2.00  777.500  256.4  2.769E+21 0.000E+00 0.000E+00 0.000E+00 0.000E+00 0.000E+00 0.000E+00 0.000E+00 6.677E+01
   4     3.00  679.800  253.2  1.774E+21 0.000E+00 0.000E+00 0.000E+00 0.000E+00 0.000E+00 0.000E+00 0.000E+00 6.260E+01
   5     4.00  593.200  248.2  9.527E+20 0.000E+00 0.000E+00 0.000E+00 0.000E+00 0.000E+00 0.000E+00 0.000E+00 5.748E+01
   6     5.00  515.800  241.4  4.156E+20 0.000E+00 0.000E+00 0.000E+00 0.000E+00 0.000E+00 0.000E+00 0.000E+00 5.131E+01
   7     6.00  446.700  234.6  1.815E+20 0.000E+00 0.000E+00 0.000E+00 0.000E+00 0.000E+00 0.000E+00 0.000E+00 4.794E+01
   8     7.00  385.300  227.8  8.887E+19 0.000E+00 0.000E+00 0.000E+00 0.000E+00 0.000E+00 0.000E+00 0.000E+00 5.271E+01
   9     8.00  330.800  221.1  1.601E+19 0.000E+00 0.000E+00 0.000E+00 0.000E+00 0.000E+00 0.000E+00 0.000E+00 2.225E+01
  10     9.00  282.900  217.7  1.062E+19 0.000E+00 0.000E+00 0.000E+00 0.000E+00 0.000E+00 0.000E+00 0.000E+00 2.511E+01
  11    10.00  241.800  217.7  5.214E+18 0.000E+00 0.000E+00 0.000E+00 0.000E+00 0.000E+00 0.000E+00 0.000E+00 1.442E+01
  12    11.00  206.700  217.7  1.905E+18 0.000E+00 0.000E+00 0.000E+00 0.000E+00 0.000E+00 0.000E+00 0.000E+00 6.165E+00
  13    12.00  176.600  217.7  8.344E+17 0.000E+00 0.000E+00 0.000E+00 0.000E+00 0.000E+00 0.000E+00 0.000E+00 3.160E+00
  14    13.00  151.000  217.7  4.525E+17 0.000E+00 0.000E+00 0.000E+00 0.000E+00 0.000E+00 0.000E+00 0.000E+00 2.004E+00
  15    14.00  129.100  217.7  3.344E+17 0.000E+00 0.000E+00 0.000E+00 0.000E+00 0.000E+00 0.000E+00 0.000E+00 1.733E+00
  16    15.00  110.300  217.7  2.468E+17 0.000E+00 0.000E+00 0.000E+00 0.000E+00 0.000E+00 0.000E+00 0.000E+00 1.497E+00
  17    16.00   94.310  217.1  1.835E+17 0.000E+00 0.000E+00 0.000E+00 0.000E+00 0.000E+00 0.000E+00 0.000E+00 1.392E+00
  18    17.00   80.580  216.5  1.361E+17 0.000E+00 0.000E+00 0.000E+00 0.000E+00 0.000E+00 0.000E+00 0.000E+00 1.294E+00
  19    18.00   68.820  215.9  1.009E+17 0.000E+00 0.000E+00 0.000E+00 0.000E+00 0.000E+00 0.000E+00 0.000E+00 1.203E+00
  20    19.00   58.750  215.3  7.475E+16 0.000E+00 0.000E+00 0.000E+00 0.000E+00 0.000E+00 0.000E+00 0.000E+00 1.118E+00
  21    20.00   50.140  214.7  5.533E+16 0.000E+00 0.000E+00 0.000E+00 0.000E+00 0.000E+00 0.000E+00 0.000E+00 1.039E+00
  22    21.00   42.770  214.1  4.090E+16 0.000E+00 0.000E+00 0.000E+00 0.000E+00 0.000E+00 0.000E+00 0.000E+00 9.660E-01
  23    22.00   36.470  213.5  3.022E+16 0.000E+00 0.000E+00 0.000E+00 0.000E+00 0.000E+00 0.000E+00 0.000E+00 8.979E-01
  24    23.00   31.090  212.9  2.231E+16 0.000E+00 0.000E+00 0.000E+00 0.000E+00 0.000E+00 0.000E+00 0.000E+00 8.346E-01
  25    24.00   26.490  212.3  1.645E+16 0.000E+00 0.000E+00 0.000E+00 0.000E+00 0.000E+00 0.000E+00 0.000E+00 7.758E-01
  26    25.00   22.560  211.7  1.200E+16 0.000E+00 0.000E+00 0.000E+00 0.000E+00 0.000E+00 0.000E+00 0.000E+00 7.139E-01
  27    30.00   10.200  216.5  2.346E+15 0.000E+00 0.000E+00 0.000E+00 0.000E+00 0.000E+00 0.000E+00 0.000E+00 1.761E-01
  28    35.00    4.701  222.8  4.704E+14 0.000E+00 0.000E+00 0.000E+00 0.000E+00 0.000E+00 0.000E+00 0.000E+00 3.835E-02
  29    40.00    2.243  235.2  9.611E+13 0.000E+00 0.000E+00 0.000E+00 0.000E+00 0.000E+00 0.000E+00 0.000E+00 4.778E-03
  30    45.00    1.113  247.5  2.137E+13 0.000E+00 0.000E+00 0.000E+00 0.000E+00 0.000E+00 0.000E+00 0.000E+00 7.273E-04
  31    50.00    0.572  259.8  5.070E+12 0.000E+00 0.000E+00 0.000E+00 0.000E+00 0.000E+00 0.000E+00 0.000E+00 1.287E-04
  32    70.00    0.040  245.9  1.846E+10 0.000E+00 0.000E+00 0.000E+00 0.000E+00 0.000E+00 0.000E+00 0.000E+00 1.997E-05
  33   100.00    0.000  219.0  3.154E+05 0.000E+00 0.000E+00 0.000E+00 0.000E+00 0.000E+00 0.000E+00 0.000E+00 4.314E-07
1
  ATMOSPHERIC PROFILES

   I      Z       P       T      H2O      O3       CO2      CO       CH4      N2O      O2       NH3      NO       NO2      SO2
         (KM)    (MB)    (K)  (                                    MBAR                                                       )
   1     0.00 1013.000  257.7  1.20E+00 1.80E-02 8.00E+02 0.00E+00 1.70E+00 0.00E+00 2.09E+05 0.00E+00 0.00E+00 0.00E+00 0.00E+00
   2     1.00  887.800  259.6  1.20E+00 2.07E-02 8.00E+02 0.00E+00 1.70E+00 0.00E+00 2.09E+05 0.00E+00 0.00E+00 0.00E+00 0.00E+00
   3     2.00  777.500  256.4  9.37E-01 2.34E-02 8.00E+02 0.00E+00 1.70E+00 0.00E+00 2.09E+05 0.00E+00 0.00E+00 0.00E+00 0.00E+00
   4     3.00  679.800  253.2  6.78E-01 2.77E-02 8.00E+02 0.00E+00 1.70E+00 0.00E+00 2.09E+05 0.00E+00 0.00E+00 0.00E+00 0.00E+00
   5     4.00  593.200  248.2  4.09E-01 3.25E-02 8.00E+02 0.00E+00 1.70E+00 0.00E+00 2.09E+05 0.00E+00 0.00E+00 0.00E+00 0.00E+00
   6     5.00  515.800  241.4  1.99E-01 3.80E-02 8.00E+02 0.00E+00 1.69E+00 0.00E+00 2.09E+05 0.00E+00 0.00E+00 0.00E+00 0.00E+00
   7     6.00  446.700  234.6  9.76E-02 4.45E-02 8.00E+02 0.00E+00 1.67E+00 0.00E+00 2.09E+05 0.00E+00 0.00E+00 0.00E+00 0.00E+00
   8     7.00  385.300  227.8  5.38E-02 7.25E-02 8.00E+02 0.00E+00 1.65E+00 0.00E+00 2.09E+05 0.00E+00 0.00E+00 0.00E+00 0.00E+00
   9     8.00  330.800  221.1  1.10E-02 1.04E-01 8.00E+02 0.00E+00 1.63E+00 0.00E+00 2.09E+05 0.00E+00 0.00E+00 0.00E+00 0.00E+00
  10     9.00  282.900  217.7  8.37E-03 2.10E-01 8.00E+02 0.00E+00 1.62E+00 0.00E+00 2.09E+05 0.00E+00 0.00E+00 0.00E+00 0.00E+00
  11    10.00  241.800  217.7  4.81E-03 3.00E-01 8.00E+02 0.00E+00 1.58E+00 0.00E+00 2.09E+05 0.00E+00 0.00E+00 0.00E+00 0.00E+00
  12    11.00  206.700  217.7  2.06E-03 3.50E-01 8.00E+02 0.00E+00 1.54E+00 0.00E+00 2.09E+05 0.00E+00 0.00E+00 0.00E+00 0.00E+00
  13    12.00  176.600  217.7  1.05E-03 4.00E-01 8.00E+02 0.00E+00 1.51E+00 0.00E+00 2.09E+05 0.00E+00 0.00E+00 0.00E+00 0.00E+00
  14    13.00  151.000  217.7  6.68E-04 6.50E-01 8.00E+02 0.00E+00 1.47E+00 0.00E+00 2.09E+05 0.00E+00 0.00E+00 0.00E+00 0.00E+00
  15    14.00  129.100  217.7  5.78E-04 9.00E-01 8.00E+02 0.00E+00 1.43E+00 0.00E+00 2.09E+05 0.00E+00 0.00E+00 0.00E+00 0.00E+00
  16    15.00  110.300  217.7  4.99E-04 1.20E+00 8.00E+02 0.00E+00 1.39E+00 0.00E+00 2.09E+05 0.00E+00 0.00E+00 0.00E+00 0.00E+00
  17    16.00   94.310  217.1  4.33E-04 1.50E+00 8.00E+02 0.00E+00 1.34E+00 0.00E+00 2.09E+05 0.00E+00 0.00E+00 0.00E+00 0.00E+00
  18    17.00   80.580  216.5  3.75E-04 1.90E+00 8.00E+02 0.00E+00 1.29E+00 0.00E+00 2.09E+05 0.00E+00 0.00E+00 0.00E+00 0.00E+00
  19    18.00   68.820  215.9  3.24E-04 2.45E+00 8.00E+02 0.00E+00 1.23E+00 0.00E+00 2.09E+05 0.00E+00 0.00E+00 0.00E+00 0.00E+00
  20    19.00   58.750  215.3  2.81E-04 3.10E+00 8.00E+02 0.00E+00 1.16E+00 0.00E+00 2.09E+05 0.00E+00 0.00E+00 0.00E+00 0.00E+00
  21    20.00   50.140  214.7  2.43E-04 3.70E+00 8.00E+02 0.00E+00 1.08E+00 0.00E+00 2.09E+05 0.00E+00 0.00E+00 0.00E+00 0.00E+00
  22    21.00   42.770  214.1  2.10E-04 4.00E+00 8.00E+02 0.00E+00 1.01E+00 0.00E+00 2.09E+05 0.00E+00 0.00E+00 0.00E+00 0.00E+00
  23    22.00   36.470  213.5  1.81E-04 4.20E+00 8.00E+02 0.00E+00 9.56E-01 0.00E+00 2.09E+05 0.00E+00 0.00E+00 0.00E+00 0.00E+00
  24    23.00   31.090  212.9  1.56E-04 4.50E+00 8.00E+02 0.00E+00 9.01E-01 0.00E+00 2.09E+05 0.00E+00 0.00E+00 0.00E+00 0.00E+00
  25    24.00   26.490  212.3  1.35E-04 4.60E+00 8.00E+02 0.00E+00 8.48E-01 0.00E+00 2.09E+05 0.00E+00 0.00E+00 0.00E+00 0.00E+00
  26    25.00   22.560  211.7  1.15E-04 4.70E+00 8.00E+02 0.00E+00 7.96E-01 0.00E+00 2.09E+05 0.00E+00 0.00E+00 0.00E+00 0.00E+00
  27    30.00   10.200  216.5  5.10E-05 5.40E+00 8.00E+02 0.00E+00 6.94E-01 0.00E+00 2.09E+05 0.00E+00 0.00E+00 0.00E+00 0.00E+00
  28    35.00    4.701  222.8  2.28E-05 6.20E+00 8.00E+02 0.00E+00 5.88E-01 0.00E+00 2.09E+05 0.00E+00 0.00E+00 0.00E+00 0.00E+00
  29    40.00    2.243  235.2  1.03E-05 5.90E+00 8.00E+02 0.00E+00 4.51E-01 0.00E+00 2.09E+05 0.00E+00 0.00E+00 0.00E+00 0.00E+00
  30    45.00    1.113  247.5  4.87E-06 4.10E+00 8.00E+02 0.00E+00 3.00E-01 0.00E+00 2.09E+05 0.00E+00 0.00E+00 0.00E+00 0.00E+00
  31    50.00    0.572  259.8  2.36E-06 2.60E+00 8.00E+02 0.00E+00 1.98E-01 0.00E+00 2.09E+05 0.00E+00 0.00E+00 0.00E+00 0.00E+00
  32    70.00    0.040  245.9  1.16E-07 5.00E-01 8.00E+02 0.00E+00 1.50E-01 0.00E+00 2.09E+05 0.00E+00 0.00E+00 0.00E+00 0.00E+00
  33   100.00    0.000  219.0  1.67E-10 4.00E-01 4.73E+02 0.00E+00 1.20E-01 0.00E+00 1.60E+05 0.00E+00 0.00E+00 0.00E+00 0.00E+00
1
  ATMOSPHERIC PROFILES

   I      Z       P       T     CFC-11   CFC-12   CFC-13   CFC-14   CFC-22   CFC-113  CFC-114  CFC-115  CLONO2    HNO4    CHCL2F 
                                 CCL4     N2O5  
         (KM)    (MB)    (K)  (                                 ATM CM/KM                                                     )
   1     0.00 1013.000  257.7  1.48E-05 2.54E-05 1.06E-13 1.06E-13 6.35E-06 2.01E-06 1.27E-06 1.06E-13 6.09E-07 4.60E-08 1.06E-13
                               1.38E-05 2.56E-11
   2     1.00  887.800  259.6  1.29E-05 2.21E-05 9.21E-14 9.21E-14 5.52E-06 1.75E-06 1.11E-06 9.21E-14 4.72E-07 1.97E-07 9.21E-14
                               1.20E-05 8.79E-11
   3     2.00  777.500  256.4  1.14E-05 1.96E-05 8.17E-14 8.17E-14 4.89E-06 1.55E-06 9.80E-07 8.17E-14 3.68E-07 3.13E-07 8.17E-14
                               1.06E-05 1.36E-10
   4     3.00  679.800  253.2  1.01E-05 1.74E-05 7.23E-14 7.23E-14 4.33E-06 1.37E-06 8.68E-07 7.23E-14 2.81E-07 4.01E-07 7.23E-14
                               9.40E-06 1.72E-10
   5     4.00  593.200  248.2  9.01E-06 1.55E-05 6.44E-14 6.44E-14 3.85E-06 1.22E-06 7.73E-07 6.44E-14 2.10E-07 4.66E-07 6.44E-14
                               8.37E-06 1.99E-10
   6     5.00  515.800  241.4  8.06E-06 1.38E-05 5.76E-14 5.76E-14 3.44E-06 1.09E-06 6.91E-07 5.76E-14 1.59E-07 1.05E-06 5.76E-14
                               7.47E-06 2.08E-10
   7     6.00  446.700  234.6  7.18E-06 1.23E-05 5.13E-14 5.13E-14 3.06E-06 9.74E-07 6.15E-07 5.13E-14 1.15E-07 1.49E-06 5.13E-14
                               6.64E-06 2.12E-10
   8     7.00  385.300  227.8  6.38E-06 1.09E-05 4.56E-14 4.56E-14 2.72E-06 8.66E-07 5.47E-07 4.56E-14 7.95E-08 1.82E-06 4.56E-14
                               5.89E-06 2.12E-10
   9     8.00  330.800  221.1  5.64E-06 9.67E-06 4.03E-14 4.03E-14 2.41E-06 7.66E-07 4.84E-07 4.03E-14 5.00E-08 2.05E-06 4.03E-14
                               5.20E-06 2.08E-10
  10     9.00  282.900  217.7  4.89E-06 8.39E-06 3.50E-14 3.50E-14 2.09E-06 6.64E-07 4.20E-07 3.50E-14 4.23E-08 1.72E-06 3.50E-14
                               4.52E-06 2.02E-10
  11    10.00  241.800  217.7  4.17E-06 7.17E-06 2.99E-14 2.99E-14 1.78E-06 5.67E-07 3.59E-07 2.99E-14 3.52E-08 1.42E-06 2.99E-14
                               3.86E-06 1.90E-10
  12    11.00  206.700  217.7  3.56E-06 6.12E-06 2.56E-14 2.56E-14 1.52E-06 4.84E-07 3.07E-07 2.56E-14 2.92E-08 1.16E-06 2.56E-14
                               3.30E-06 1.78E-10
  13    12.00  176.600  217.7  3.04E-06 5.22E-06 2.18E-14 2.18E-14 1.30E-06 4.13E-07 2.62E-07 2.18E-14 2.43E-08 9.55E-07 2.18E-14
                               2.82E-06 1.65E-10
  14    13.00  151.000  217.7  2.52E-06 4.40E-06 1.87E-14 1.87E-14 1.10E-06 3.47E-07 2.22E-07 1.87E-14 1.50E-07 1.06E-06 1.87E-14
                               2.34E-06 8.23E-09
  15    14.00  129.100  217.7  2.09E-06 3.71E-06 1.60E-14 1.60E-14 9.32E-07 2.91E-07 1.88E-07 1.60E-14 2.38E-07 1.11E-06 1.60E-14
                               1.93E-06 1.40E-08
  16    15.00  110.300  217.7  1.73E-06 3.12E-06 1.36E-14 1.36E-14 7.89E-07 2.44E-07 1.59E-07 1.36E-14 2.97E-07 1.12E-06 1.36E-14
                               1.60E-06 1.78E-08
  17    16.00   94.310  217.1  1.44E-06 2.63E-06 1.17E-14 1.17E-14 6.69E-07 2.05E-07 1.35E-07 1.17E-14 3.36E-07 1.11E-06 1.17E-14
                               1.32E-06 2.04E-08
  18    17.00   80.580  216.5  1.13E-06 2.15E-06 1.00E-14 1.00E-14 5.58E-07 1.66E-07 1.12E-07 1.00E-14 1.02E-06 1.43E-06 1.00E-14
                               1.02E-06 8.80E-08
  19    18.00   68.820  215.9  8.72E-07 1.76E-06 8.59E-15 8.59E-15 4.64E-07 1.34E-07 9.32E-08 8.59E-15 1.50E-06 1.63E-06 8.59E-15
                               7.78E-07 1.36E-07
  20    19.00   58.750  215.3  6.68E-07 1.43E-06 7.35E-15 7.35E-15 3.86E-07 1.07E-07 7.74E-08 7.35E-15 1.82E-06 1.75E-06 7.35E-15
                               5.84E-07 1.68E-07
  21    20.00   50.140  214.7  5.04E-07 1.16E-06 6.29E-15 6.29E-15 3.20E-07 8.55E-08 6.42E-08 6.29E-15 2.01E-06 1.79E-06 6.29E-15
                               4.29E-07 1.88E-07
  22    21.00   42.770  214.1  3.69E-07 9.20E-07 5.38E-15 5.38E-15 2.63E-07 6.66E-08 5.25E-08 5.38E-15 2.48E-06 1.89E-06 5.38E-15
                               3.08E-07 2.23E-07
  23    22.00   36.470  213.5  2.63E-07 7.27E-07 4.60E-15 4.60E-15 2.16E-07 5.13E-08 4.28E-08 4.60E-15 2.76E-06 1.93E-06 4.60E-15
                               2.12E-07 2.44E-07
  24    23.00   31.090  212.9  1.79E-07 5.70E-07 3.93E-15 3.93E-15 1.77E-07 3.91E-08 3.49E-08 3.93E-15 2.91E-06 1.91E-06 3.93E-15
                               1.38E-07 2.54E-07
  25    24.00   26.490  212.3  1.14E-07 4.44E-07 3.36E-15 3.36E-15 1.45E-07 2.93E-08 2.83E-08 3.36E-15 2.96E-06 1.86E-06 3.36E-15
                               8.07E-08 2.56E-07
  26    25.00   22.560  211.7  7.83E-08 3.41E-07 2.87E-15 2.87E-15 1.17E-07 2.18E-08 2.28E-08 2.87E-15 2.79E-06 1.67E-06 2.87E-15
                               5.41E-08 2.21E-07
  27    30.00   10.200  216.5  4.95E-09 7.47E-08 1.27E-15 1.27E-15 3.84E-08 3.70E-09 7.15E-09 1.27E-15 1.45E-06 6.47E-07 1.27E-15
                               2.23E-09 7.00E-08
  28    35.00    4.701  222.8  1.13E-10 1.21E-08 5.68E-16 5.68E-16 1.18E-08 4.07E-10 2.08E-09 5.68E-16 2.98E-07 8.35E-08 5.68E-16
                               2.25E-11 6.15E-09
  29    40.00    2.243  235.2  4.75E-13 1.56E-09 2.57E-16 2.57E-16 3.57E-09 3.16E-11 5.96E-10 2.57E-16 1.10E-08 2.56E-09 2.57E-16
                               1.02E-14 5.47E-11
  30    45.00    1.113  247.5  1.11E-14 2.58E-10 1.21E-16 1.21E-16 1.26E-09 3.89E-12 1.96E-10 1.21E-16 2.03E-10 1.06E-10 1.21E-16
                               6.75E-17 4.77E-13
  31    50.00    0.572  259.8  3.54E-16 5.05E-11 5.93E-17 5.93E-17 5.21E-10 5.87E-13 7.41E-11 5.93E-17 2.77E-12 4.52E-12 5.93E-17
                               6.48E-19 3.73E-15
  32    70.00    0.040  245.9  2.23E-21 1.71E-13 4.38E-18 4.38E-18 3.15E-11 7.70E-16 2.57E-12 4.38E-18 3.17E-19 1.41E-16 4.38E-18
                               4.33E-26 3.59E-23
  33   100.00    0.000  219.0  1.62E-30 1.29E-18 5.20E-20 5.20E-20 9.31E-14 6.82E-22 1.11E-15 5.20E-20 4.20E-35 1.73E-31 5.20E-20
                               2.65E-38 0.00E+00


 CASE 3A: GIVEN H1,H2=SPACE,ANGLE



 TANGENT PATH WITH H1 =     70.000 AND ANGLE =    180.000 INTERSECTS THE EARTH

          H2 HAS BEEN RESET TO 0.0 AND LEN TO 0



 SLANT PATH PARAMETERS IN STANDARD FORM

          H1      =     70.000 KM
          H2      =      0.000 KM
          ANGLE   =    180.000 DEG
          PHI     =      0.000 DEG
          HMIN    =      0.000 KM
          LEN     =          0
1CALCULATION OF THE REFRACTED PATH THROUGH THE ATMOSPHERE


  I       ALTITUDE        THETA  DRANGE    RANGE    DBETA     BETA     PHI     DBEND  BENDING    PBAR    TBAR   RHOBAR
      FROM       TO
      (KM)      (KM)      (DEG)    (KM)     (KM)    (DEG)    (DEG)    (DEG)    (DEG)    (DEG)    (MB)    (K)  (GM CM-3)

          H2 TO H1

  1    0.000    1.000    0.000    1.000    1.000    0.000    0.000  180.000    0.000    0.000  950.476  258.67 1.28E-03
  2    1.000    2.000    0.000    1.000    2.000    0.000    0.000  180.000    0.000    0.000  832.536  258.07 1.12E-03
  3    2.000    3.000    0.000    1.000    3.000    0.000    0.000  180.000    0.000    0.000  728.548  254.87 9.94E-04
  4    3.000    4.000    0.000    1.000    4.000    0.000    0.000  180.000    0.000    0.000  636.356  250.78 8.83E-04
  5    4.000    5.000    0.000    1.000    5.000    0.000    0.000  180.000    0.000    0.000  554.321  244.89 7.88E-04
  6    5.000    6.000    0.000    1.000    6.000    0.000    0.000  180.000    0.000    0.000  481.086  238.09 7.03E-04
  7    6.000    7.000    0.000    1.000    7.000    0.000    0.000  180.000    0.000    0.000  415.850  231.29 6.25E-04
  8    7.000    8.000    0.000    1.000    8.000    0.000    0.000  180.000    0.000    0.000  357.915  224.54 5.54E-04
  9    8.000    9.000    0.000    1.000    9.000    0.000    0.000  180.000    0.000    0.000  306.788  219.48 4.86E-04
 10    9.000   10.000    0.000    1.000   10.000    0.000    0.000  180.000    0.000    0.000  262.350  217.74 4.19E-04
 11   10.000   11.000    0.000    1.000   11.000    0.000    0.000  180.000    0.000    0.000  224.250  217.74 3.58E-04
 12   11.000   12.000    0.000    1.000   12.000    0.000    0.000  180.000    0.000    0.000  191.650  217.74 3.06E-04
 13   12.000   13.000    0.000    1.000   13.000    0.000    0.000  180.000    0.000    0.000  163.800  217.74 2.62E-04
 14   13.000   14.000    0.000    1.000   14.000    0.000    0.000  180.000    0.000    0.000  140.050  217.74 2.24E-04
 15   14.000   15.000    0.000    1.000   15.000    0.000    0.000  180.000    0.000    0.000  119.700  217.74 1.91E-04
 16   15.000   16.000    0.000    1.000   16.000    0.000    0.000  180.000    0.000    0.000  102.301  217.45 1.64E-04
 17   16.000   17.000    0.000    1.000   17.000    0.000    0.000  180.000    0.000    0.000   87.442  216.85 1.40E-04
 18   17.000   18.000    0.000    1.000   18.000    0.000    0.000  180.000    0.000    0.000   74.697  216.25 1.20E-04
 19   18.000   19.000    0.000    1.000   19.000    0.000    0.000  180.000    0.000    0.000   63.783  215.65 1.03E-04
 20   19.000   20.000    0.000    1.000   20.000    0.000    0.000  180.000    0.000    0.000   54.443  215.05 8.80E-05
 21   20.000   21.000    0.000    1.000   21.000    0.000    0.000  180.000    0.000    0.000   46.453  214.45 7.53E-05
 22   21.000   22.000    0.000    1.000   22.000    0.000    0.000  180.000    0.000    0.000   39.619  213.85 6.44E-05
 23   22.000   23.000    0.000    1.000   23.000    0.000    0.000  180.000    0.000    0.000   33.779  213.25 5.51E-05
 24   23.000   24.000    0.000    1.000   24.000    0.000    0.000  180.000    0.000    0.000   28.789  212.65 4.71E-05
 25   24.000   25.000    0.000    1.000   25.000    0.000    0.000  180.000    0.000    0.000   24.524  212.05 4.02E-05
 26   25.000   30.000    0.000    5.000   30.000    0.000    0.000  180.000    0.000    0.000   16.403  213.81 2.54E-05
 27   30.000   35.000    0.000    5.000   35.000    0.000    0.000  180.000    0.000    0.000    7.463  219.26 1.13E-05
 28   35.000   40.000    0.000    5.000   40.000    0.000    0.000  180.000    0.000    0.000    3.483  228.17 5.07E-06
 29   40.000   45.000    0.000    5.000   45.000    0.000    0.000  180.000    0.000    0.000    1.683  240.57 2.34E-06
 30   45.000   50.000    0.000    5.000   50.000    0.000    0.000  180.000    0.000    0.000    0.845  252.91 1.12E-06
 31   50.000   70.000    0.000   20.000   70.000    0.000    0.000  180.000    0.000    0.000    0.304  255.56 2.73E-07




1CUMULATIVE ABSORBER AMOUNTS FOR THE PATH FROM H1 TO Z

  J     Z        TBAR     HNO3        O3 UV      CNTMSLF1   CNTMSLF2    CNTMFRN      O2
       (KM)       (K)   (ATM CM)    (ATM CM)    (MOL CM-2)  (MOL CM-2)  (MOL CM-2)(MOL CM-2)

  1   50.000   255.56   0.000E+00   7.145E-04   8.309E+07   9.334E+07   1.799E+13   8.814E+01
  2   45.000   252.91   0.000E+00   2.178E-03   3.650E+08   4.308E+08   7.464E+13   1.787E+02
  3   40.000   240.57   0.000E+00   6.745E-03   1.607E+09   2.343E+09   3.232E+14   3.677E+02
  4   35.000   228.17   0.000E+00   1.864E-02   7.494E+09   1.344E+10   1.502E+15   7.790E+02
  5   30.000   219.26   0.000E+00   4.367E-02   3.665E+10   7.558E+10   7.337E+15   1.698E+03
  6   25.000   213.81   0.000E+00   9.267E-02   1.844E+11   4.129E+11   3.691E+16   3.785E+03
  7   24.000   212.05   0.000E+00   1.071E-01   2.549E+11   5.773E+11   5.102E+16   4.452E+03
  8   23.000   212.65   0.000E+00   1.237E-01   3.505E+11   7.986E+11   7.025E+16   5.235E+03
  9   22.000   213.25   0.000E+00   1.422E-01   4.787E+11   1.093E+12   9.631E+16   6.157E+03
 10   21.000   213.85   0.000E+00   1.626E-01   6.505E+11   1.485E+12   1.316E+17   7.241E+03
 11   20.000   214.45   0.000E+00   1.850E-01   8.807E+11   2.007E+12   1.794E+17   8.517E+03
 12   19.000   215.05   0.000E+00   2.080E-01   1.189E+12   2.699E+12   2.439E+17   1.002E+04
 13   18.000   215.65   0.000E+00   2.299E-01   1.600E+12   3.618E+12   3.311E+17   1.179E+04
 14   17.000   216.25   0.000E+00   2.499E-01   2.150E+12   4.835E+12   4.487E+17   1.388E+04
 15   16.000   216.85   0.000E+00   2.682E-01   2.882E+12   6.446E+12   6.074E+17   1.635E+04
 16   15.000   217.45   0.000E+00   2.852E-01   3.858E+12   8.576E+12   8.210E+17   1.928E+04
 17   14.000   217.74   0.000E+00   3.006E-01   5.162E+12   1.141E+13   1.109E+18   2.275E+04
 18   13.000   217.74   0.000E+00   3.138E-01   6.908E+12   1.520E+13   1.500E+18   2.688E+04
 19   12.000   217.74   0.000E+00   3.243E-01   1.019E+13   2.234E+13   2.124E+18   3.182E+04
 20   11.000   217.74   0.000E+00   3.331E-01   2.069E+13   4.517E+13   3.421E+18   3.774E+04
 21   10.000   217.74   0.000E+00   3.421E-01   7.079E+13   1.541E+14   6.708E+18   4.487E+04
 22    9.000   217.74   0.000E+00   3.503E-01   2.616E+14   5.690E+14   1.431E+19   5.346E+04
 23    8.000   219.48   0.000E+00   3.560E-01   6.801E+14   1.459E+15   2.744E+19   6.378E+04
 24    7.000   224.54   0.000E+00   3.598E-01   4.612E+15   9.262E+15   6.995E+19   7.594E+04
 25    6.000   231.29   0.000E+00   3.626E-01   2.972E+16   5.440E+16   1.997E+20   9.011E+04
 26    5.000   238.09   0.000E+00   3.648E-01   1.251E+17   2.078E+17   4.822E+20   1.066E+05
 27    4.000   244.89   0.000E+00   3.669E-01   5.244E+17   7.748E+17   1.130E+21   1.258E+05
 28    3.000   250.78   0.000E+00   3.690E-01   1.826E+18   2.410E+18   2.451E+21   1.482E+05
 29    2.000   254.87   0.000E+00   3.709E-01   4.737E+18   5.736E+18   4.686E+21   1.745E+05
 30    1.000   258.07   0.000E+00   3.728E-01   9.835E+18   1.111E+19   8.027E+21   2.058E+05
 31    0.000   258.67   0.000E+00   3.748E-01   1.628E+19   1.779E+19   1.230E+22   2.434E+05



1 J     Z       N2 CONT    MOL SCAT       AER 1       AER 2       AER 3       AER 4       CIRRUS
       (KM)

  1   50.000   1.234E-06   4.219E-03   0.000E+00   0.000E+00   0.000E+00   0.000E+00   0.000E+00
  2   45.000   4.823E-06   8.549E-03   0.000E+00   0.000E+00   0.000E+00   0.000E+00   0.000E+00
  3   40.000   2.051E-05   1.758E-02   0.000E+00   0.000E+00   0.000E+00   0.000E+00   0.000E+00
  4   35.000   9.489E-05   3.721E-02   0.000E+00   0.000E+00   0.000E+00   0.000E+00   0.000E+00
  5   30.000   4.632E-04   8.085E-02   0.000E+00   0.000E+00   0.000E+00   0.000E+00   0.000E+00
  6   25.000   2.330E-03   1.790E-01   0.000E+00   0.000E+00   0.000E+00   0.000E+00   0.000E+00
  7   24.000   3.220E-03   2.101E-01   0.000E+00   0.000E+00   0.000E+00   0.000E+00   0.000E+00
  8   23.000   4.440E-03   2.465E-01   0.000E+00   0.000E+00   0.000E+00   0.000E+00   0.000E+00
  9   22.000   6.111E-03   2.892E-01   0.000E+00   0.000E+00   0.000E+00   0.000E+00   0.000E+00
 10   21.000   8.396E-03   3.390E-01   0.000E+00   0.000E+00   0.000E+00   0.000E+00   0.000E+00
 11   20.000   1.152E-02   3.973E-01   0.000E+00   0.000E+00   0.000E+00   0.000E+00   0.000E+00
 12   19.000   1.579E-02   4.654E-01   0.000E+00   0.000E+00   0.000E+00   0.000E+00   0.000E+00
 13   18.000   2.161E-02   5.449E-01   0.000E+00   0.000E+00   0.000E+00   0.000E+00   0.000E+00
 14   17.000   2.956E-02   6.379E-01   0.000E+00   0.000E+00   0.000E+00   0.000E+00   0.000E+00
 15   16.000   4.038E-02   7.464E-01   0.000E+00   0.000E+00   0.000E+00   0.000E+00   0.000E+00
 16   15.000   5.512E-02   8.729E-01   0.000E+00   0.000E+00   0.000E+00   0.000E+00   0.000E+00
 17   14.000   7.524E-02   1.021E+00   0.000E+00   0.000E+00   0.000E+00   0.000E+00   0.000E+00
 18   13.000   1.028E-01   1.194E+00   0.000E+00   0.000E+00   0.000E+00   0.000E+00   0.000E+00
 19   12.000   1.405E-01   1.396E+00   0.000E+00   0.000E+00   0.000E+00   0.000E+00   0.000E+00
 20   11.000   1.920E-01   1.633E+00   0.000E+00   0.000E+00   0.000E+00   0.000E+00   0.000E+00
 21   10.000   2.627E-01   1.910E+00   0.000E+00   0.000E+00   0.000E+00   0.000E+00   0.000E+00
 22    9.000   3.593E-01   2.234E+00   0.000E+00   0.000E+00   0.000E+00   0.000E+00   0.000E+00
 23    8.000   4.894E-01   2.610E+00   0.000E+00   0.000E+00   0.000E+00   0.000E+00   0.000E+00
 24    7.000   6.586E-01   3.039E+00   0.000E+00   0.000E+00   0.000E+00   0.000E+00   0.000E+00
 25    6.000   8.739E-01   3.523E+00   0.000E+00   0.000E+00   0.000E+00   0.000E+00   0.000E+00
 26    5.000   1.146E+00   4.067E+00   0.000E+00   0.000E+00   0.000E+00   0.000E+00   0.000E+00
 27    4.000   1.487E+00   4.677E+00   0.000E+00   0.000E+00   0.000E+00   0.000E+00   0.000E+00
 28    3.000   1.916E+00   5.360E+00   0.000E+00   0.000E+00   0.000E+00   0.000E+00   0.000E+00
 29    2.000   2.460E+00   6.129E+00   0.000E+00   0.000E+00   0.000E+00   0.000E+00   0.000E+00
 30    1.000   3.154E+00   6.998E+00   0.000E+00   0.000E+00   0.000E+00   0.000E+00   0.000E+00
 31    0.000   4.053E+00   7.987E+00   0.000E+00   0.000E+00   0.000E+00   0.000E+00   0.000E+00



1  J    Z       H2O       O3        CO2       CO        CH4       N2O       O2        NH3       NO        NO2       SO2
      (KM)    (                                                      ATM CM                                             )

   1   50.00  1.85E-03  7.15E-04  3.37E-01  0.00E+00  7.69E-05  0.00E+00  8.81E+01  0.00E+00  0.00E+00  0.00E+00  0.00E+00
   2   45.00  4.01E-03  2.18E-03  6.83E-01  0.00E+00  1.86E-04  0.00E+00  1.79E+02  0.00E+00  0.00E+00  0.00E+00  0.00E+00
   3   40.00  8.52E-03  6.74E-03  1.41E+00  0.00E+00  5.29E-04  0.00E+00  3.67E+02  0.00E+00  0.00E+00  0.00E+00  0.00E+00
   4   35.00  1.83E-02  1.86E-02  2.97E+00  0.00E+00  1.56E-03  0.00E+00  7.77E+02  0.00E+00  0.00E+00  0.00E+00  0.00E+00
   5   30.00  4.01E-02  4.37E-02  6.46E+00  0.00E+00  4.38E-03  0.00E+00  1.69E+03  0.00E+00  0.00E+00  0.00E+00  0.00E+00
   6   25.00  8.92E-02  9.27E-02  1.43E+01  0.00E+00  1.17E-02  0.00E+00  3.74E+03  0.00E+00  0.00E+00  0.00E+00  0.00E+00
   7   24.00  1.05E-01  1.07E-01  1.68E+01  0.00E+00  1.43E-02  0.00E+00  4.39E+03  0.00E+00  0.00E+00  0.00E+00  0.00E+00
   8   23.00  1.23E-01  1.24E-01  1.97E+01  0.00E+00  1.75E-02  0.00E+00  5.15E+03  0.00E+00  0.00E+00  0.00E+00  0.00E+00
   9   22.00  1.44E-01  1.42E-01  2.31E+01  0.00E+00  2.14E-02  0.00E+00  6.04E+03  0.00E+00  0.00E+00  0.00E+00  0.00E+00
  10   21.00  1.68E-01  1.63E-01  2.71E+01  0.00E+00  2.64E-02  0.00E+00  7.08E+03  0.00E+00  0.00E+00  0.00E+00  0.00E+00
  11   20.00  1.96E-01  1.85E-01  3.18E+01  0.00E+00  3.25E-02  0.00E+00  8.30E+03  0.00E+00  0.00E+00  0.00E+00  0.00E+00
  12   19.00  2.29E-01  2.08E-01  3.72E+01  0.00E+00  4.01E-02  0.00E+00  9.72E+03  0.00E+00  0.00E+00  0.00E+00  0.00E+00
  13   18.00  2.66E-01  2.30E-01  4.36E+01  0.00E+00  4.96E-02  0.00E+00  1.14E+04  0.00E+00  0.00E+00  0.00E+00  0.00E+00
  14   17.00  3.10E-01  2.50E-01  5.10E+01  0.00E+00  6.13E-02  0.00E+00  1.33E+04  0.00E+00  0.00E+00  0.00E+00  0.00E+00
  15   16.00  3.60E-01  2.68E-01  5.97E+01  0.00E+00  7.56E-02  0.00E+00  1.56E+04  0.00E+00  0.00E+00  0.00E+00  0.00E+00
  16   15.00  4.18E-01  2.85E-01  6.98E+01  0.00E+00  9.29E-02  0.00E+00  1.82E+04  0.00E+00  0.00E+00  0.00E+00  0.00E+00
  17   14.00  4.84E-01  3.01E-01  8.16E+01  0.00E+00  1.14E-01  0.00E+00  2.13E+04  0.00E+00  0.00E+00  0.00E+00  0.00E+00
  18   13.00  5.62E-01  3.14E-01  9.54E+01  0.00E+00  1.39E-01  0.00E+00  2.49E+04  0.00E+00  0.00E+00  0.00E+00  0.00E+00
  19   12.00  6.67E-01  3.24E-01  1.12E+02  0.00E+00  1.69E-01  0.00E+00  2.92E+04  0.00E+00  0.00E+00  0.00E+00  0.00E+00
  20   11.00  8.54E-01  3.33E-01  1.31E+02  0.00E+00  2.05E-01  0.00E+00  3.41E+04  0.00E+00  0.00E+00  0.00E+00  0.00E+00
  21   10.00  1.26E+00  3.42E-01  1.53E+02  0.00E+00  2.48E-01  0.00E+00  3.99E+04  0.00E+00  0.00E+00  0.00E+00  0.00E+00
  22    9.00  2.06E+00  3.50E-01  1.79E+02  0.00E+00  3.00E-01  0.00E+00  4.67E+04  0.00E+00  0.00E+00  0.00E+00  0.00E+00
  23    8.00  3.25E+00  3.56E-01  2.09E+02  0.00E+00  3.61E-01  0.00E+00  5.45E+04  0.00E+00  0.00E+00  0.00E+00  0.00E+00
  24    7.00  6.60E+00  3.60E-01  2.43E+02  0.00E+00  4.31E-01  0.00E+00  6.35E+04  0.00E+00  0.00E+00  0.00E+00  0.00E+00
  25    6.00  1.58E+01  3.63E-01  2.82E+02  0.00E+00  5.12E-01  0.00E+00  7.36E+04  0.00E+00  0.00E+00  0.00E+00  0.00E+00
  26    5.00  3.35E+01  3.65E-01  3.25E+02  0.00E+00  6.03E-01  0.00E+00  8.50E+04  0.00E+00  0.00E+00  0.00E+00  0.00E+00
  27    4.00  6.98E+01  3.67E-01  3.74E+02  0.00E+00  7.06E-01  0.00E+00  9.77E+04  0.00E+00  0.00E+00  0.00E+00  0.00E+00
  28    3.00  1.36E+02  3.69E-01  4.29E+02  0.00E+00  8.22E-01  0.00E+00  1.12E+05  0.00E+00  0.00E+00  0.00E+00  0.00E+00
  29    2.00  2.35E+02  3.71E-01  4.90E+02  0.00E+00  9.53E-01  0.00E+00  1.28E+05  0.00E+00  0.00E+00  0.00E+00  0.00E+00
  30    1.00  3.67E+02  3.73E-01  5.59E+02  0.00E+00  1.10E+00  0.00E+00  1.46E+05  0.00E+00  0.00E+00  0.00E+00  0.00E+00
  31    0.00  5.16E+02  3.75E-01  6.39E+02  0.00E+00  1.27E+00  0.00E+00  1.67E+05  0.00E+00  0.00E+00  0.00E+00  0.00E+00



1  J    Z      CFC-11    CFC-12    CFC-13    CFC-14    CFC-22    CFC-113   CFC-114   CFC-115   CLONO2     HNO4     CHCL2F 
                CCL4      N2O5  
      (KM)    (                                                   ATM CM                                                )

   1   50.00  5.91E-16  1.77E-10  4.22E-16  4.22E-16  3.49E-09  1.77E-12  4.25E-10  4.22E-16  3.46E-12  8.72E-12  4.22E-16
              7.84E-19  4.04E-15
   2   45.00  1.62E-14  8.14E-10  8.54E-16  8.54E-16  7.66E-09  1.05E-11  1.05E-09  8.54E-16  2.37E-10  1.69E-10  8.54E-16
              7.27E-17  4.92E-13
   3   40.00  6.34E-13  4.44E-09  1.76E-15  1.76E-15  1.87E-08  7.67E-11  2.85E-09  1.76E-15  1.37E-08  4.02E-09  1.76E-15
              1.01E-14  5.77E-11
   4   35.00  1.03E-10  3.02E-08  3.72E-15  3.72E-15  5.31E-08  8.12E-10  8.78E-09  3.72E-15  4.48E-07  1.20E-07  3.72E-15
              1.46E-11  6.51E-09
   5   30.00  6.50E-09  2.02E-07  8.08E-15  8.08E-15  1.66E-07  8.27E-09  2.93E-08  8.08E-15  4.08E-06  1.50E-06  8.08E-15
              2.41E-09  1.38E-07
   6   25.00  1.39E-07  1.08E-06  1.79E-14  1.79E-14  5.19E-07  5.93E-08  9.68E-08  1.79E-14  1.43E-05  6.89E-06  1.79E-14
              8.37E-08  7.95E-07
   7   24.00  2.34E-07  1.47E-06  2.10E-14  2.10E-14  6.49E-07  8.47E-08  1.22E-07  2.10E-14  1.72E-05  8.65E-06  2.10E-14
              1.50E-07  1.03E-06
   8   23.00  3.79E-07  1.97E-06  2.46E-14  2.46E-14  8.09E-07  1.19E-07  1.54E-07  2.46E-14  2.01E-05  1.05E-05  2.46E-14
              2.57E-07  1.29E-06
   9   22.00  5.97E-07  2.62E-06  2.89E-14  2.89E-14  1.01E-06  1.64E-07  1.92E-07  2.89E-14  2.30E-05  1.24E-05  2.89E-14
              4.29E-07  1.54E-06
  10   21.00  9.10E-07  3.44E-06  3.39E-14  3.39E-14  1.24E-06  2.22E-07  2.40E-07  3.39E-14  2.56E-05  1.44E-05  3.39E-14
              6.86E-07  1.77E-06
  11   20.00  1.34E-06  4.47E-06  3.97E-14  3.97E-14  1.53E-06  2.98E-07  2.98E-07  3.97E-14  2.78E-05  1.62E-05  3.97E-14
              1.05E-06  1.98E-06
  12   19.00  1.93E-06  5.76E-06  4.65E-14  4.65E-14  1.89E-06  3.94E-07  3.69E-07  4.65E-14  2.97E-05  1.80E-05  4.65E-14
              1.55E-06  2.15E-06
  13   18.00  2.69E-06  7.35E-06  5.45E-14  5.45E-14  2.31E-06  5.14E-07  4.54E-07  5.45E-14  3.14E-05  1.97E-05  5.45E-14
              2.23E-06  2.31E-06
  14   17.00  3.69E-06  9.29E-06  6.37E-14  6.37E-14  2.82E-06  6.63E-07  5.56E-07  6.37E-14  3.26E-05  2.12E-05  6.37E-14
              3.12E-06  2.42E-06
  15   16.00  4.96E-06  1.17E-05  7.46E-14  7.46E-14  3.43E-06  8.47E-07  6.79E-07  7.46E-14  3.33E-05  2.25E-05  7.46E-14
              4.29E-06  2.47E-06
  16   15.00  6.54E-06  1.45E-05  8.72E-14  8.72E-14  4.16E-06  1.07E-06  8.25E-07  8.72E-14  3.36E-05  2.36E-05  8.72E-14
              5.74E-06  2.49E-06
  17   14.00  8.45E-06  1.80E-05  1.02E-13  1.02E-13  5.02E-06  1.34E-06  9.98E-07  1.02E-13  3.39E-05  2.47E-05  1.02E-13
              7.50E-06  2.51E-06
  18   13.00  1.08E-05  2.20E-05  1.19E-13  1.19E-13  6.03E-06  1.66E-06  1.20E-06  1.19E-13  3.41E-05  2.58E-05  1.19E-13
              9.63E-06  2.52E-06
  19   12.00  1.35E-05  2.68E-05  1.40E-13  1.40E-13  7.23E-06  2.03E-06  1.44E-06  1.40E-13  3.42E-05  2.68E-05  1.40E-13
              1.22E-05  2.52E-06
  20   11.00  1.68E-05  3.25E-05  1.63E-13  1.63E-13  8.64E-06  2.48E-06  1.73E-06  1.63E-13  3.42E-05  2.78E-05  1.63E-13
              1.53E-05  2.52E-06
  21   10.00  2.07E-05  3.91E-05  1.91E-13  1.91E-13  1.03E-05  3.01E-06  2.06E-06  1.91E-13  3.42E-05  2.91E-05  1.91E-13
              1.88E-05  2.52E-06
  22    9.00  2.52E-05  4.68E-05  2.23E-13  2.23E-13  1.22E-05  3.62E-06  2.45E-06  2.23E-13  3.43E-05  3.07E-05  2.23E-13
              2.30E-05  2.52E-06
  23    8.00  3.05E-05  5.59E-05  2.61E-13  2.61E-13  1.45E-05  4.33E-06  2.90E-06  2.61E-13  3.43E-05  3.26E-05  2.61E-13
              2.79E-05  2.52E-06
  24    7.00  3.65E-05  6.62E-05  3.04E-13  3.04E-13  1.70E-05  5.15E-06  3.41E-06  3.04E-13  3.44E-05  3.45E-05  3.04E-13
              3.34E-05  2.52E-06
  25    6.00  4.32E-05  7.78E-05  3.52E-13  3.52E-13  1.99E-05  6.07E-06  3.99E-06  3.52E-13  3.45E-05  3.62E-05  3.52E-13
              3.96E-05  2.52E-06
  26    5.00  5.08E-05  9.08E-05  4.06E-13  4.06E-13  2.32E-05  7.10E-06  4.65E-06  4.06E-13  3.46E-05  3.74E-05  4.06E-13
              4.67E-05  2.52E-06
  27    4.00  5.94E-05  1.05E-04  4.67E-13  4.67E-13  2.68E-05  8.26E-06  5.38E-06  4.67E-13  3.48E-05  3.82E-05  4.67E-13
              5.46E-05  2.52E-06
  28    3.00  6.89E-05  1.22E-04  5.36E-13  5.36E-13  3.09E-05  9.55E-06  6.20E-06  5.36E-13  3.51E-05  3.86E-05  5.36E-13
              6.35E-05  2.52E-06
  29    2.00  7.97E-05  1.40E-04  6.13E-13  6.13E-13  3.55E-05  1.10E-05  7.12E-06  6.13E-13  3.54E-05  3.90E-05  6.13E-13
              7.35E-05  2.52E-06
  30    1.00  9.18E-05  1.61E-04  6.99E-13  6.99E-13  4.07E-05  1.27E-05  8.16E-06  6.99E-13  3.58E-05  3.92E-05  6.99E-13
              8.48E-05  2.52E-06
  31    0.00  1.06E-04  1.85E-04  7.98E-13  7.98E-13  4.66E-05  1.45E-05  9.35E-06  7.98E-13  3.63E-05  3.93E-05  7.98E-13
              9.76E-05  2.52E-06


0SUMMARY OF THE GEOMETRY CALCULATION

          H1      =     70.000 KM
          H2      =      0.000 KM
          ANGLE   =    180.000 DEG
          RANGE   =     70.000 KM
          BETA    =      0.000 DEG
          PHI     =      0.000 DEG
          HMIN    =      0.000 KM
          BENDING =      0.000 DEG
          LEN     =          0




1EQUIVALENT SEA LEVEL TOTAL ABSORBER AMOUNTS

                 HNO3      O3 UV       CNTMSLF1    CNTMSLF2   CNTMFRN
               (ATM CM)   (ATM CM)     (MOL CM-2)  (MOL CM-2)  (MOL CM-2)  (MOL CM-2)

             0.000E+00   3.748E-01   1.628E+19   1.779E+19   1.230E+22


              N2 CONT    MOL SCAT       AER 1       AER 2       AER 3       AER 4     CIRRUS      MEAN RH
                                                                                                  (PRCNT)

             4.053E+00   7.987E+00   0.000E+00   0.000E+00   0.000E+00   0.000E+00   0.000E+00        0.00


                 H2O        O3          CO2         CO          CH4         N2O          O2
               (                                        ATM CM                            )

             5.162E+02   3.748E-01   6.385E+02   0.000E+00   1.268E+00   0.000E+00   1.668E+05

                 NH3        NO          NO2         SO2
                 (               ATM CM               )

             0.000E+00   0.000E+00   0.000E+00   0.000E+00

             CFC-11      CFC-12      CFC-13      CFC-14      CFC-22      CFC-113     CFC-114
                 (                                      ATM CM                            )

             1.057E-04   1.848E-04   7.982E-13   7.982E-13   4.662E-05   1.454E-05   9.348E-06

             CFC-115     CLONO2       HNO4       CHCL2F       CCL4        N2O5  
                 (                                      ATM CM                            )

             7.982E-13   3.633E-05   3.934E-05   7.982E-13   9.761E-05   2.524E-06
  iv           -5
  iv            0
1                                             RADIANCE(WATTS/CM2-STER-XXX)
0  FREQ   WAVLEN    PATH THERMAL      SURFACE EMISSION    SURFACE REFLECTED     TOTAL RADIANCE   INTEGRAL    TOTAL
  (CM-1) (MICRN)    (CM-1)   (MICRN)    (CM-1)   (MICRN)    (CM-1)   (MICRN)    (CM-1)   (MICRN)    (CM-1)   TRANS

      2. 4999.998  4.93E-10  1.97E-13  5.84E-10  2.34E-13  0.00E+00  0.00E+00  1.08E-09  4.31E-13  1.08E-09  0.50779
      4. 2500.000  1.34E-09  2.14E-12  2.21E-09  3.54E-12  0.00E+00  0.00E+00  3.55E-09  5.67E-12  8.17E-09  0.58869
      6. 1666.666  3.35E-09  1.21E-11  4.31E-09  1.55E-11  0.00E+00  0.00E+00  7.66E-09  2.76E-11  2.35E-08  0.57497
      8. 1250.000  6.36E-09  4.07E-11  7.00E-09  4.48E-11  0.00E+00  0.00E+00  1.34E-08  8.55E-11  5.02E-08  0.53134
     10. 1000.000  1.39E-08  1.39E-10  6.62E-09  6.62E-11  0.00E+00  0.00E+00  2.05E-08  2.05E-10  9.12E-08  0.35824
     12.  833.333  2.58E-08  3.72E-10  2.89E-09  4.16E-11  0.00E+00  0.00E+00  2.87E-08  4.14E-10  1.49E-07  0.11686
     14.  714.286  3.72E-08  7.30E-10  7.60E-10  1.49E-11  0.00E+00  0.00E+00  3.80E-08  7.45E-10  2.25E-07  0.02221
     16.  625.000  4.83E-08  1.24E-09  1.44E-10  3.68E-12  0.00E+00  0.00E+00  4.85E-08  1.24E-09  3.22E-07  0.00345
     18.  555.555  5.87E-08  1.90E-09  1.04E-11  3.37E-13  0.00E+00  0.00E+00  5.87E-08  1.90E-09  4.39E-07  0.00018
     20.  500.000  7.30E-08  2.92E-09  1.22E-11  4.89E-13  0.00E+00  0.00E+00  7.30E-08  2.92E-09  5.85E-07  0.00014
     22.  454.545  9.05E-08  4.38E-09  3.00E-11  1.45E-12  0.00E+00  0.00E+00  9.06E-08  4.38E-09  7.66E-07  0.00031
     24.  416.667  1.04E-07  5.98E-09  1.50E-11  8.62E-13  0.00E+00  0.00E+00  1.04E-07  5.98E-09  9.74E-07  0.00015
     26.  384.615  1.20E-07  8.10E-09  2.48E-12  1.68E-13  0.00E+00  0.00E+00  1.20E-07  8.10E-09  1.21E-06  0.00002
     28.  357.143  1.43E-07  1.12E-08  1.03E-11  8.10E-13  0.00E+00  0.00E+00  1.43E-07  1.12E-08  1.50E-06  0.00007
     30.  333.333  1.62E-07  1.46E-08  6.54E-12  5.88E-13  0.00E+00  0.00E+00  1.62E-07  1.46E-08  1.82E-06  0.00004
     32.  312.500  1.76E-07  1.81E-08  7.50E-14  7.68E-15  0.00E+00  0.00E+00  1.76E-07  1.81E-08  2.18E-06  0.00000
     34.  294.118  1.96E-07  2.26E-08  1.55E-18  1.79E-19  0.00E+00  0.00E+00  1.96E-07  2.26E-08  2.57E-06  0.00000
     36.  277.778  2.13E-07  2.76E-08  5.55E-23  7.20E-24  0.00E+00  0.00E+00  2.13E-07  2.76E-08  2.99E-06  0.00000
     38.  263.158  2.30E-07  3.33E-08  1.44E-34  2.08E-35  0.00E+00  0.00E+00  2.30E-07  3.33E-08  3.45E-06  0.00000
     40.  250.000  2.56E-07  4.10E-08  7.29E-30  1.17E-30  0.00E+00  0.00E+00  2.56E-07  4.10E-08  3.97E-06  0.00000
     42.  238.095  2.91E-07  5.13E-08  8.26E-22  1.46E-22  0.00E+00  0.00E+00  2.91E-07  5.13E-08  4.55E-06  0.00000
     44.  227.273  3.23E-07  6.25E-08  2.17E-21  4.20E-22  0.00E+00  0.00E+00  3.23E-07  6.25E-08  5.19E-06  0.00000
     46.  217.391  3.44E-07  7.28E-08  2.82E-20  5.97E-21  0.00E+00  0.00E+00  3.44E-07  7.28E-08  5.88E-06  0.00000
     48.  208.333  3.69E-07  8.50E-08  2.76E-20  6.35E-21  0.00E+00  0.00E+00  3.69E-07  8.50E-08  6.62E-06  0.00000
     50.  200.000  4.05E-07  1.01E-07  8.02E-25  2.01E-25  0.00E+00  0.00E+00  4.05E-07  1.01E-07  7.43E-06  0.00000
     52.  192.308  4.28E-07  1.16E-07  2.67E-25  7.21E-26  0.00E+00  0.00E+00  4.28E-07  1.16E-07  8.28E-06  0.00000
     54.  185.185  4.44E-07  1.29E-07  7.82E-40  2.28E-40  0.00E+00  0.00E+00  4.44E-07  1.29E-07  9.17E-06  0.00000
     56.  178.571  4.68E-07  1.47E-07  0.00E+00  0.00E+00  0.00E+00  0.00E+00  4.68E-07  1.47E-07  1.01E-05  0.00000
     58.  172.414  5.00E-07  1.68E-07  0.00E+00  0.00E+00  0.00E+00  0.00E+00  5.00E-07  1.68E-07  1.11E-05  0.00000
     60.  166.667  5.39E-07  1.94E-07  6.62E-37  2.38E-37  0.00E+00  0.00E+00  5.39E-07  1.94E-07  1.22E-05  0.00000
     62.  161.290  5.73E-07  2.20E-07  2.03E-36  7.82E-37  0.00E+00  0.00E+00  5.73E-07  2.20E-07  1.33E-05  0.00000
     64.  156.250  6.07E-07  2.49E-07  8.90E-37  3.64E-37  0.00E+00  0.00E+00  6.07E-07  2.49E-07  1.45E-05  0.00000
     66.  151.515  6.53E-07  2.84E-07  2.88E-37  1.25E-37  0.00E+00  0.00E+00  6.53E-07  2.84E-07  1.59E-05  0.00000
     68.  147.059  6.81E-07  3.15E-07  7.96E-38  3.68E-38  0.00E+00  0.00E+00  6.81E-07  3.15E-07  1.72E-05  0.00000
     70.  142.857  7.12E-07  3.49E-07  2.81E-41  1.38E-41  0.00E+00  0.00E+00  7.12E-07  3.49E-07  1.86E-05  0.00000
     72.  138.889  7.38E-07  3.83E-07  0.00E+00  0.00E+00  0.00E+00  0.00E+00  7.38E-07  3.83E-07  2.01E-05  0.00000
     74.  135.135  7.67E-07  4.20E-07  0.00E+00  0.00E+00  0.00E+00  0.00E+00  7.67E-07  4.20E-07  2.17E-05  0.00000
     76.  131.579  8.10E-07  4.68E-07  0.00E+00  0.00E+00  0.00E+00  0.00E+00  8.10E-07  4.68E-07  2.33E-05  0.00000
     78.  128.205  8.48E-07  5.16E-07  0.00E+00  0.00E+00  0.00E+00  0.00E+00  8.48E-07  5.16E-07  2.50E-05  0.00000
     80.  125.000  8.83E-07  5.65E-07  0.00E+00  0.00E+00  0.00E+00  0.00E+00  8.83E-07  5.65E-07  2.67E-05  0.00000
     82.  121.951  9.28E-07  6.24E-07  0.00E+00  0.00E+00  0.00E+00  0.00E+00  9.28E-07  6.24E-07  2.86E-05  0.00000
     84.  119.048  9.84E-07  6.94E-07  0.00E+00  0.00E+00  0.00E+00  0.00E+00  9.84E-07  6.94E-07  3.06E-05  0.00000
     86.  116.279  1.02E-06  7.51E-07  0.00E+00  0.00E+00  0.00E+00  0.00E+00  1.02E-06  7.51E-07  3.26E-05  0.00000
     88.  113.636  1.03E-06  8.00E-07  0.00E+00  0.00E+00  0.00E+00  0.00E+00  1.03E-06  8.00E-07  3.47E-05  0.00000
     90.  111.111  1.07E-06  8.71E-07  0.00E+00  0.00E+00  0.00E+00  0.00E+00  1.07E-06  8.71E-07  3.68E-05  0.00000
     92.  108.696  1.11E-06  9.43E-07  0.00E+00  0.00E+00  0.00E+00  0.00E+00  1.11E-06  9.43E-07  3.90E-05  0.00000
     94.  106.383  1.16E-06  1.03E-06  0.00E+00  0.00E+00  0.00E+00  0.00E+00  1.16E-06  1.03E-06  4.14E-05  0.00000
     96.  104.167  1.21E-06  1.11E-06  0.00E+00  0.00E+00  0.00E+00  0.00E+00  1.21E-06  1.11E-06  4.38E-05  0.00000
     98.  102.041  1.24E-06  1.19E-06  0.00E+00  0.00E+00  0.00E+00  0.00E+00  1.24E-06  1.19E-06  4.63E-05  0.00000
    100.  100.000  1.27E-06  1.27E-06  0.00E+00  0.00E+00  0.00E+00  0.00E+00  1.27E-06  1.27E-06  4.88E-05  0.00000
  iv          105
1                                             RADIANCE(WATTS/CM2-STER-XXX)
0  FREQ   WAVLEN    PATH THERMAL      SURFACE EMISSION    SURFACE REFLECTED     TOTAL RADIANCE   INTEGRAL    TOTAL
  (CM-1) (MICRN)    (CM-1)   (MICRN)    (CM-1)   (MICRN)    (CM-1)   (MICRN)    (CM-1)   (MICRN)    (CM-1)   TRANS

    102.   98.039  1.32E-06  1.38E-06  0.00E+00  0.00E+00  0.00E+00  0.00E+00  1.32E-06  1.38E-06  5.14E-05  0.00000
    104.   96.154  1.37E-06  1.48E-06  0.00E+00  0.00E+00  0.00E+00  0.00E+00  1.37E-06  1.48E-06  5.42E-05  0.00000
    106.   94.340  1.41E-06  1.58E-06  0.00E+00  0.00E+00  0.00E+00  0.00E+00  1.41E-06  1.58E-06  5.70E-05  0.00000
    108.   92.593  1.48E-06  1.72E-06  0.00E+00  0.00E+00  0.00E+00  0.00E+00  1.48E-06  1.72E-06  5.99E-05  0.00000
    110.   90.909  1.52E-06  1.84E-06  0.00E+00  0.00E+00  0.00E+00  0.00E+00  1.52E-06  1.84E-06  6.30E-05  0.00000
    112.   89.286  1.57E-06  1.96E-06  0.00E+00  0.00E+00  0.00E+00  0.00E+00  1.57E-06  1.96E-06  6.61E-05  0.00000
    114.   87.719  1.66E-06  2.16E-06  0.00E+00  0.00E+00  0.00E+00  0.00E+00  1.66E-06  2.16E-06  6.94E-05  0.00000
    116.   86.207  1.70E-06  2.28E-06  0.00E+00  0.00E+00  0.00E+00  0.00E+00  1.70E-06  2.28E-06  7.28E-05  0.00000
    118.   84.746  1.70E-06  2.37E-06  0.00E+00  0.00E+00  0.00E+00  0.00E+00  1.70E-06  2.37E-06  7.62E-05  0.00000
    120.   83.333  1.72E-06  2.48E-06  0.00E+00  0.00E+00  0.00E+00  0.00E+00  1.72E-06  2.48E-06  7.97E-05  0.00000
    122.   81.967  1.75E-06  2.61E-06  0.00E+00  0.00E+00  0.00E+00  0.00E+00  1.75E-06  2.61E-06  8.32E-05  0.00000
    124.   80.645  1.82E-06  2.80E-06  0.00E+00  0.00E+00  0.00E+00  0.00E+00  1.82E-06  2.80E-06  8.68E-05  0.00000
    126.   79.365  1.85E-06  2.94E-06  0.00E+00  0.00E+00  0.00E+00  0.00E+00  1.85E-06  2.94E-06  9.05E-05  0.00000
    128.   78.125  1.90E-06  3.12E-06  0.00E+00  0.00E+00  0.00E+00  0.00E+00  1.90E-06  3.12E-06  9.43E-05  0.00000
    130.   76.923  1.97E-06  3.33E-06  0.00E+00  0.00E+00  0.00E+00  0.00E+00  1.97E-06  3.33E-06  9.83E-05  0.00000
    132.   75.758  1.98E-06  3.46E-06  0.00E+00  0.00E+00  0.00E+00  0.00E+00  1.98E-06  3.46E-06  1.02E-04  0.00000
    134.   74.627  2.05E-06  3.68E-06  0.00E+00  0.00E+00  0.00E+00  0.00E+00  2.05E-06  3.68E-06  1.06E-04  0.00000
    136.   73.529  2.13E-06  3.94E-06  0.00E+00  0.00E+00  0.00E+00  0.00E+00  2.13E-06  3.94E-06  1.11E-04  0.00000
    138.   72.464  2.14E-06  4.07E-06  0.00E+00  0.00E+00  0.00E+00  0.00E+00  2.14E-06  4.07E-06  1.15E-04  0.00000
    140.   71.429  2.16E-06  4.23E-06  0.00E+00  0.00E+00  0.00E+00  0.00E+00  2.16E-06  4.23E-06  1.19E-04  0.00000
    142.   70.423  2.27E-06  4.57E-06  0.00E+00  0.00E+00  0.00E+00  0.00E+00  2.27E-06  4.57E-06  1.24E-04  0.00000
    144.   69.444  2.37E-06  4.91E-06  0.00E+00  0.00E+00  0.00E+00  0.00E+00  2.37E-06  4.91E-06  1.28E-04  0.00000
    146.   68.493  2.39E-06  5.10E-06  0.00E+00  0.00E+00  0.00E+00  0.00E+00  2.39E-06  5.10E-06  1.33E-04  0.00000
    148.   67.568  2.37E-06  5.19E-06  0.00E+00  0.00E+00  0.00E+00  0.00E+00  2.37E-06  5.19E-06  1.38E-04  0.00000
    150.   66.667  2.37E-06  5.33E-06  0.00E+00  0.00E+00  0.00E+00  0.00E+00  2.37E-06  5.33E-06  1.43E-04  0.00000
    152.   65.789  2.42E-06  5.58E-06  0.00E+00  0.00E+00  0.00E+00  0.00E+00  2.42E-06  5.58E-06  1.48E-04  0.00000
    154.   64.935  2.49E-06  5.92E-06  0.00E+00  0.00E+00  0.00E+00  0.00E+00  2.49E-06  5.92E-06  1.53E-04  0.00000
    156.   64.103  2.56E-06  6.22E-06  0.00E+00  0.00E+00  0.00E+00  0.00E+00  2.56E-06  6.22E-06  1.58E-04  0.00000
    158.   63.291  2.60E-06  6.50E-06  0.00E+00  0.00E+00  0.00E+00  0.00E+00  2.60E-06  6.50E-06  1.63E-04  0.00000
    160.   62.500  2.71E-06  6.95E-06  0.00E+00  0.00E+00  0.00E+00  0.00E+00  2.71E-06  6.95E-06  1.68E-04  0.00000
    162.   61.728  2.81E-06  7.37E-06  0.00E+00  0.00E+00  0.00E+00  0.00E+00  2.81E-06  7.37E-06  1.74E-04  0.00000
    164.   60.976  2.87E-06  7.71E-06  0.00E+00  0.00E+00  0.00E+00  0.00E+00  2.87E-06  7.71E-06  1.80E-04  0.00000
    166.   60.241  2.84E-06  7.82E-06  0.00E+00  0.00E+00  0.00E+00  0.00E+00  2.84E-06  7.82E-06  1.85E-04  0.00000
    168.   59.524  2.83E-06  7.98E-06  0.00E+00  0.00E+00  0.00E+00  0.00E+00  2.83E-06  7.98E-06  1.91E-04  0.00000
    170.   58.824  2.84E-06  8.21E-06  0.00E+00  0.00E+00  0.00E+00  0.00E+00  2.84E-06  8.21E-06  1.97E-04  0.00000
    172.   58.140  2.89E-06  8.56E-06  0.00E+00  0.00E+00  0.00E+00  0.00E+00  2.89E-06  8.56E-06  2.02E-04  0.00000
    174.   57.471  2.95E-06  8.94E-06  0.00E+00  0.00E+00  0.00E+00  0.00E+00  2.95E-06  8.94E-06  2.08E-04  0.00000
    176.   56.818  2.99E-06  9.26E-06  0.00E+00  0.00E+00  0.00E+00  0.00E+00  2.99E-06  9.26E-06  2.14E-04  0.00000
    178.   56.180  3.04E-06  9.62E-06  0.00E+00  0.00E+00  0.00E+00  0.00E+00  3.04E-06  9.62E-06  2.20E-04  0.00000
    180.   55.556  3.14E-06  1.02E-05  0.00E+00  0.00E+00  0.00E+00  0.00E+00  3.14E-06  1.02E-05  2.27E-04  0.00000
    182.   54.945  3.21E-06  1.06E-05  0.00E+00  0.00E+00  0.00E+00  0.00E+00  3.21E-06  1.06E-05  2.33E-04  0.00000
    184.   54.348  3.34E-06  1.13E-05  0.00E+00  0.00E+00  0.00E+00  0.00E+00  3.34E-06  1.13E-05  2.40E-04  0.00000
    186.   53.763  3.38E-06  1.17E-05  1.90E-38  6.57E-38  0.00E+00  0.00E+00  3.38E-06  1.17E-05  2.47E-04  0.00000
    188.   53.191  3.32E-06  1.18E-05  5.70E-38  2.02E-37  0.00E+00  0.00E+00  3.32E-06  1.18E-05  2.53E-04  0.00000
    190.   52.632  3.45E-06  1.25E-05  1.90E-38  6.86E-38  0.00E+00  0.00E+00  3.45E-06  1.25E-05  2.60E-04  0.00000
    192.   52.083  3.53E-06  1.30E-05  0.00E+00  0.00E+00  0.00E+00  0.00E+00  3.53E-06  1.30E-05  2.67E-04  0.00000
    194.   51.546  3.49E-06  1.32E-05  0.00E+00  0.00E+00  0.00E+00  0.00E+00  3.49E-06  1.32E-05  2.74E-04  0.00000
    196.   51.020  3.55E-06  1.36E-05  0.00E+00  0.00E+00  0.00E+00  0.00E+00  3.55E-06  1.36E-05  2.81E-04  0.00000
    198.   50.505  3.61E-06  1.42E-05  0.00E+00  0.00E+00  0.00E+00  0.00E+00  3.61E-06  1.42E-05  2.88E-04  0.00000
    200.   50.000  3.59E-06  1.44E-05  0.00E+00  0.00E+00  0.00E+00  0.00E+00  3.59E-06  1.44E-05  2.96E-04  0.00000
  iv          205
1                                             RADIANCE(WATTS/CM2-STER-XXX)
0  FREQ   WAVLEN    PATH THERMAL      SURFACE EMISSION    SURFACE REFLECTED     TOTAL RADIANCE   INTEGRAL    TOTAL
  (CM-1) (MICRN)    (CM-1)   (MICRN)    (CM-1)   (MICRN)    (CM-1)   (MICRN)    (CM-1)   (MICRN)    (CM-1)   TRANS

    202.   49.505  3.52E-06  1.44E-05  0.00E+00  0.00E+00  0.00E+00  0.00E+00  3.52E-06  1.44E-05  3.03E-04  0.00000
    204.   49.020  3.60E-06  1.50E-05  0.00E+00  0.00E+00  0.00E+00  0.00E+00  3.60E-06  1.50E-05  3.10E-04  0.00000
    206.   48.544  3.69E-06  1.57E-05  0.00E+00  0.00E+00  0.00E+00  0.00E+00  3.69E-06  1.57E-05  3.17E-04  0.00000
    208.   48.077  3.68E-06  1.59E-05  0.00E+00  0.00E+00  0.00E+00  0.00E+00  3.68E-06  1.59E-05  3.25E-04  0.00000
    210.   47.619  3.80E-06  1.67E-05  0.00E+00  0.00E+00  0.00E+00  0.00E+00  3.80E-06  1.67E-05  3.32E-04  0.00000
    212.   47.170  3.89E-06  1.75E-05  0.00E+00  0.00E+00  0.00E+00  0.00E+00  3.89E-06  1.75E-05  3.40E-04  0.00000
    214.   46.729  3.89E-06  1.78E-05  0.00E+00  0.00E+00  0.00E+00  0.00E+00  3.89E-06  1.78E-05  3.48E-04  0.00000
    216.   46.296  4.06E-06  1.90E-05  3.97E-42  1.85E-41  0.00E+00  0.00E+00  4.06E-06  1.90E-05  3.56E-04  0.00000
    218.   45.872  4.20E-06  2.00E-05  8.05E-42  3.83E-41  0.00E+00  0.00E+00  4.20E-06  2.00E-05  3.64E-04  0.00000
    220.   45.455  4.11E-06  1.99E-05  2.04E-42  9.87E-42  0.00E+00  0.00E+00  4.11E-06  1.99E-05  3.73E-04  0.00000
    222.   45.045  3.99E-06  1.97E-05  0.00E+00  0.00E+00  0.00E+00  0.00E+00  3.99E-06  1.97E-05  3.81E-04  0.00000
    224.   44.643  4.04E-06  2.03E-05  0.00E+00  0.00E+00  0.00E+00  0.00E+00  4.04E-06  2.03E-05  3.89E-04  0.00000
    226.   44.248  4.03E-06  2.06E-05  0.00E+00  0.00E+00  0.00E+00  0.00E+00  4.03E-06  2.06E-05  3.97E-04  0.00000
    228.   43.860  4.08E-06  2.12E-05  0.00E+00  0.00E+00  0.00E+00  0.00E+00  4.08E-06  2.12E-05  4.05E-04  0.00000
    230.   43.478  4.26E-06  2.26E-05  0.00E+00  0.00E+00  0.00E+00  0.00E+00  4.26E-06  2.26E-05  4.13E-04  0.00000
    232.   43.103  4.40E-06  2.37E-05  1.10E-40  5.92E-40  0.00E+00  0.00E+00  4.40E-06  2.37E-05  4.22E-04  0.00000
    234.   42.735  4.57E-06  2.50E-05  7.80E-31  4.27E-30  0.00E+00  0.00E+00  4.57E-06  2.50E-05  4.31E-04  0.00000
    236.   42.373  4.71E-06  2.62E-05  5.35E-29  2.98E-28  0.00E+00  0.00E+00  4.71E-06  2.62E-05  4.41E-04  0.00000
    238.   42.017  4.77E-06  2.70E-05  1.41E-28  8.01E-28  0.00E+00  0.00E+00  4.77E-06  2.70E-05  4.50E-04  0.00000
    240.   41.667  4.81E-06  2.77E-05  7.28E-29  4.19E-28  0.00E+00  0.00E+00  4.81E-06  2.77E-05  4.60E-04  0.00000
    242.   41.322  4.77E-06  2.79E-05  3.64E-30  2.13E-29  0.00E+00  0.00E+00  4.77E-06  2.79E-05  4.69E-04  0.00000
    244.   40.984  4.55E-06  2.71E-05  2.44E-35  1.45E-34  0.00E+00  0.00E+00  4.55E-06  2.71E-05  4.78E-04  0.00000
    246.   40.650  4.40E-06  2.66E-05  1.86E-43  1.13E-42  0.00E+00  0.00E+00  4.40E-06  2.66E-05  4.87E-04  0.00000
    248.   40.323  4.48E-06  2.75E-05  5.59E-43  3.44E-42  0.00E+00  0.00E+00  4.48E-06  2.75E-05  4.96E-04  0.00000
    250.   40.000  4.67E-06  2.92E-05  1.86E-43  1.16E-42  0.00E+00  0.00E+00  4.67E-06  2.92E-05  5.06E-04  0.00000
    252.   39.683  4.64E-06  2.95E-05  3.25E-35  2.06E-34  0.00E+00  0.00E+00  4.64E-06  2.95E-05  5.15E-04  0.00000
    254.   39.370  4.58E-06  2.95E-05  9.75E-35  6.29E-34  0.00E+00  0.00E+00  4.58E-06  2.95E-05  5.24E-04  0.00000
    256.   39.063  4.82E-06  3.16E-05  3.75E-35  2.46E-34  0.00E+00  0.00E+00  4.82E-06  3.16E-05  5.34E-04  0.00000
    258.   38.760  5.10E-06  3.40E-05  1.34E-27  8.92E-27  0.00E+00  0.00E+00  5.10E-06  3.40E-05  5.44E-04  0.00000
    260.   38.462  5.27E-06  3.56E-05  2.24E-25  1.51E-24  0.00E+00  0.00E+00  5.27E-06  3.56E-05  5.54E-04  0.00000
    262.   38.168  5.30E-06  3.64E-05  5.00E-25  3.43E-24  0.00E+00  0.00E+00  5.30E-06  3.64E-05  5.65E-04  0.00000
    264.   37.879  5.23E-06  3.65E-05  2.95E-25  2.05E-24  0.00E+00  0.00E+00  5.23E-06  3.65E-05  5.75E-04  0.00000
    266.   37.594  5.09E-06  3.60E-05  4.54E-25  3.21E-24  0.00E+00  0.00E+00  5.09E-06  3.60E-05  5.86E-04  0.00000
    268.   37.313  5.28E-06  3.79E-05  5.91E-24  4.24E-23  0.00E+00  0.00E+00  5.28E-06  3.79E-05  5.96E-04  0.00000
    270.   37.037  5.50E-06  4.01E-05  1.84E-23  1.34E-22  0.00E+00  0.00E+00  5.50E-06  4.01E-05  6.07E-04  0.00000
    272.   36.765  5.51E-06  4.07E-05  8.08E-24  5.98E-23  0.00E+00  0.00E+00  5.51E-06  4.07E-05  6.18E-04  0.00000
    274.   36.496  5.40E-06  4.05E-05  1.18E-25  8.88E-25  0.00E+00  0.00E+00  5.40E-06  4.05E-05  6.29E-04  0.00000
    276.   36.232  5.11E-06  3.89E-05  2.18E-30  1.66E-29  0.00E+00  0.00E+00  5.11E-06  3.89E-05  6.39E-04  0.00000
    278.   35.971  4.94E-06  3.82E-05  0.00E+00  0.00E+00  0.00E+00  0.00E+00  4.94E-06  3.82E-05  6.49E-04  0.00000
    280.   35.714  4.97E-06  3.90E-05  3.86E-42  3.03E-41  0.00E+00  0.00E+00  4.97E-06  3.90E-05  6.59E-04  0.00000
    282.   35.461  5.08E-06  4.04E-05  1.16E-41  9.22E-41  0.00E+00  0.00E+00  5.08E-06  4.04E-05  6.69E-04  0.00000
    284.   35.211  5.41E-06  4.37E-05  4.09E-30  3.30E-29  0.00E+00  0.00E+00  5.41E-06  4.37E-05  6.80E-04  0.00000
    286.   34.965  5.66E-06  4.63E-05  1.24E-29  1.02E-28  0.00E+00  0.00E+00  5.66E-06  4.63E-05  6.91E-04  0.00000
    288.   34.722  5.47E-06  4.54E-05  2.29E-23  1.90E-22  0.00E+00  0.00E+00  5.47E-06  4.54E-05  7.02E-04  0.00000
    290.   34.483  5.38E-06  4.53E-05  2.29E-23  1.93E-22  0.00E+00  0.00E+00  5.38E-06  4.53E-05  7.13E-04  0.00000
    292.   34.247  5.79E-06  4.94E-05  2.27E-20  1.93E-19  0.00E+00  0.00E+00  5.79E-06  4.94E-05  7.25E-04  0.00000
    294.   34.014  6.04E-06  5.22E-05  1.12E-19  9.69E-19  0.00E+00  0.00E+00  6.04E-06  5.22E-05  7.37E-04  0.00000
    296.   33.784  6.02E-06  5.27E-05  8.24E-20  7.22E-19  0.00E+00  0.00E+00  6.02E-06  5.27E-05  7.49E-04  0.00000
    298.   33.557  5.90E-06  5.24E-05  7.54E-21  6.70E-20  0.00E+00  0.00E+00  5.90E-06  5.24E-05  7.61E-04  0.00000
    300.   33.333  5.73E-06  5.16E-05  5.34E-24  4.81E-23  0.00E+00  0.00E+00  5.73E-06  5.16E-05  7.72E-04  0.00000
  iv          305
1                                             RADIANCE(WATTS/CM2-STER-XXX)
0  FREQ   WAVLEN    PATH THERMAL      SURFACE EMISSION    SURFACE REFLECTED     TOTAL RADIANCE   INTEGRAL    TOTAL
  (CM-1) (MICRN)    (CM-1)   (MICRN)    (CM-1)   (MICRN)    (CM-1)   (MICRN)    (CM-1)   (MICRN)    (CM-1)   TRANS

    302.   33.113  5.40E-06  4.93E-05  9.42E-34  8.59E-33  0.00E+00  0.00E+00  5.40E-06  4.93E-05  7.83E-04  0.00000
    304.   32.895  5.54E-06  5.12E-05  1.33E-27  1.23E-26  0.00E+00  0.00E+00  5.54E-06  5.12E-05  7.94E-04  0.00000
    306.   32.680  6.04E-06  5.65E-05  1.87E-19  1.75E-18  0.00E+00  0.00E+00  6.04E-06  5.65E-05  8.06E-04  0.00000
    308.   32.468  6.26E-06  5.94E-05  5.56E-18  5.28E-17  0.00E+00  0.00E+00  6.26E-06  5.94E-05  8.18E-04  0.00000
    310.   32.258  6.35E-06  6.11E-05  1.66E-16  1.60E-15  0.00E+00  0.00E+00  6.35E-06  6.11E-05  8.31E-04  0.00000
    312.   32.051  6.42E-06  6.25E-05  2.41E-16  2.34E-15  0.00E+00  0.00E+00  6.42E-06  6.25E-05  8.44E-04  0.00000
    314.   31.847  6.15E-06  6.07E-05  5.65E-17  5.57E-16  0.00E+00  0.00E+00  6.15E-06  6.07E-05  8.56E-04  0.00000
    316.   31.646  6.17E-06  6.16E-05  4.17E-16  4.17E-15  0.00E+00  0.00E+00  6.17E-06  6.16E-05  8.69E-04  0.00000
    318.   31.447  6.56E-06  6.63E-05  2.11E-15  2.14E-14  0.00E+00  0.00E+00  6.56E-06  6.63E-05  8.82E-04  0.00000
    320.   31.250  6.54E-06  6.70E-05  1.34E-15  1.37E-14  0.00E+00  0.00E+00  6.54E-06  6.70E-05  8.95E-04  0.00000
    322.   31.056  6.15E-06  6.38E-05  1.95E-17  2.03E-16  0.00E+00  0.00E+00  6.15E-06  6.38E-05  9.07E-04  0.00000
    324.   30.864  5.87E-06  6.16E-05  3.13E-21  3.28E-20  0.00E+00  0.00E+00  5.87E-06  6.16E-05  9.19E-04  0.00000
    326.   30.675  6.01E-06  6.38E-05  1.06E-21  1.13E-20  0.00E+00  0.00E+00  6.01E-06  6.38E-05  9.31E-04  0.00000
    328.   30.488  5.98E-06  6.43E-05  4.66E-22  5.01E-21  0.00E+00  0.00E+00  5.98E-06  6.43E-05  9.43E-04  0.00000
    330.   30.303  6.47E-06  7.05E-05  1.71E-16  1.87E-15  0.00E+00  0.00E+00  6.47E-06  7.05E-05  9.56E-04  0.00000
    332.   30.120  6.74E-06  7.43E-05  4.89E-16  5.39E-15  0.00E+00  0.00E+00  6.74E-06  7.43E-05  9.69E-04  0.00000
    334.   29.940  6.33E-06  7.06E-05  1.77E-16  1.97E-15  0.00E+00  0.00E+00  6.33E-06  7.06E-05  9.82E-04  0.00000
    336.   29.762  6.26E-06  7.07E-05  3.27E-15  3.69E-14  0.00E+00  0.00E+00  6.26E-06  7.07E-05  9.94E-04  0.00000
    338.   29.586  6.79E-06  7.76E-05  1.86E-14  2.13E-13  0.00E+00  0.00E+00  6.79E-06  7.76E-05  1.01E-03  0.00000
    340.   29.412  6.65E-06  7.69E-05  1.29E-14  1.49E-13  0.00E+00  0.00E+00  6.65E-06  7.69E-05  1.02E-03  0.00000
    342.   29.240  6.59E-06  7.71E-05  4.82E-15  5.64E-14  0.00E+00  0.00E+00  6.59E-06  7.71E-05  1.03E-03  0.00000
    344.   29.070  6.85E-06  8.11E-05  9.57E-14  1.13E-12  0.00E+00  0.00E+00  6.85E-06  8.11E-05  1.05E-03  0.00000
    346.   28.902  6.97E-06  8.35E-05  2.43E-13  2.91E-12  0.00E+00  0.00E+00  6.97E-06  8.35E-05  1.06E-03  0.00000
    348.   28.736  6.78E-06  8.21E-05  1.35E-13  1.64E-12  0.00E+00  0.00E+00  6.78E-06  8.21E-05  1.08E-03  0.00000
    350.   28.571  6.32E-06  7.75E-05  1.49E-17  1.83E-16  0.00E+00  0.00E+00  6.32E-06  7.75E-05  1.09E-03  0.00000
    352.   28.409  6.26E-06  7.76E-05  2.96E-20  3.67E-19  0.00E+00  0.00E+00  6.26E-06  7.76E-05  1.10E-03  0.00000
    354.   28.249  6.33E-06  7.94E-05  1.52E-21  1.91E-20  0.00E+00  0.00E+00  6.33E-06  7.94E-05  1.11E-03  0.00000
    356.   28.090  6.39E-06  8.10E-05  7.52E-17  9.52E-16  0.00E+00  0.00E+00  6.39E-06  8.10E-05  1.13E-03  0.00000
    358.   27.933  6.63E-06  8.49E-05  1.83E-12  2.34E-11  0.00E+00  0.00E+00  6.63E-06  8.49E-05  1.14E-03  0.00000
    360.   27.778  7.29E-06  9.45E-05  1.14E-10  1.48E-09  0.00E+00  0.00E+00  7.29E-06  9.45E-05  1.15E-03  0.00001
    362.   27.624  7.57E-06  9.93E-05  6.93E-10  9.08E-09  0.00E+00  0.00E+00  7.58E-06  9.93E-05  1.17E-03  0.00008
    364.   27.473  7.68E-06  1.02E-04  2.42E-09  3.20E-08  0.00E+00  0.00E+00  7.69E-06  1.02E-04  1.18E-03  0.00028
    366.   27.322  7.76E-06  1.04E-04  3.08E-09  4.13E-08  0.00E+00  0.00E+00  7.76E-06  1.04E-04  1.20E-03  0.00036
    368.   27.174  7.38E-06  1.00E-04  1.09E-09  1.48E-08  0.00E+00  0.00E+00  7.38E-06  1.00E-04  1.22E-03  0.00013
    370.   27.027  7.04E-06  9.64E-05  3.95E-11  5.41E-10  0.00E+00  0.00E+00  7.04E-06  9.64E-05  1.23E-03  0.00000
    372.   26.882  7.34E-06  1.02E-04  4.18E-11  5.79E-10  0.00E+00  0.00E+00  7.34E-06  1.02E-04  1.24E-03  0.00000
    374.   26.738  6.87E-06  9.60E-05  1.37E-11  1.92E-10  0.00E+00  0.00E+00  6.87E-06  9.60E-05  1.26E-03  0.00000
    376.   26.596  6.84E-06  9.67E-05  3.42E-11  4.83E-10  0.00E+00  0.00E+00  6.84E-06  9.67E-05  1.27E-03  0.00000
    378.   26.455  7.56E-06  1.08E-04  1.69E-09  2.41E-08  0.00E+00  0.00E+00  7.56E-06  1.08E-04  1.29E-03  0.00019
    380.   26.316  7.90E-06  1.14E-04  6.64E-09  9.59E-08  0.00E+00  0.00E+00  7.91E-06  1.14E-04  1.30E-03  0.00076
    382.   26.178  7.84E-06  1.14E-04  5.71E-09  8.33E-08  0.00E+00  0.00E+00  7.84E-06  1.14E-04  1.32E-03  0.00065
    384.   26.042  7.15E-06  1.05E-04  9.84E-10  1.45E-08  0.00E+00  0.00E+00  7.15E-06  1.05E-04  1.33E-03  0.00011
    386.   25.907  7.16E-06  1.07E-04  3.56E-09  5.31E-08  0.00E+00  0.00E+00  7.16E-06  1.07E-04  1.35E-03  0.00040
    388.   25.773  7.97E-06  1.20E-04  2.93E-08  4.41E-07  0.00E+00  0.00E+00  8.00E-06  1.20E-04  1.36E-03  0.00332
    390.   25.641  8.21E-06  1.25E-04  5.36E-08  8.15E-07  0.00E+00  0.00E+00  8.26E-06  1.26E-04  1.38E-03  0.00605
    392.   25.510  8.07E-06  1.24E-04  3.30E-08  5.07E-07  0.00E+00  0.00E+00  8.11E-06  1.25E-04  1.40E-03  0.00372
    394.   25.381  7.49E-06  1.16E-04  4.17E-09  6.47E-08  0.00E+00  0.00E+00  7.49E-06  1.16E-04  1.41E-03  0.00047
    396.   25.253  6.90E-06  1.08E-04  8.73E-13  1.37E-11  0.00E+00  0.00E+00  6.90E-06  1.08E-04  1.42E-03  0.00000
    398.   25.126  6.76E-06  1.07E-04  2.43E-14  3.85E-13  0.00E+00  0.00E+00  6.76E-06  1.07E-04  1.44E-03  0.00000
    400.   25.000  7.33E-06  1.17E-04  6.56E-09  1.05E-07  0.00E+00  0.00E+00  7.33E-06  1.17E-04  1.45E-03  0.00073
  iv          405
1                                             RADIANCE(WATTS/CM2-STER-XXX)
0  FREQ   WAVLEN    PATH THERMAL      SURFACE EMISSION    SURFACE REFLECTED     TOTAL RADIANCE   INTEGRAL    TOTAL
  (CM-1) (MICRN)    (CM-1)   (MICRN)    (CM-1)   (MICRN)    (CM-1)   (MICRN)    (CM-1)   (MICRN)    (CM-1)   TRANS

    402.   24.876  8.14E-06  1.32E-04  8.53E-08  1.38E-06  0.00E+00  0.00E+00  8.23E-06  1.33E-04  1.47E-03  0.00948
    404.   24.752  8.32E-06  1.36E-04  2.00E-07  3.27E-06  0.00E+00  0.00E+00  8.52E-06  1.39E-04  1.49E-03  0.02221
    406.   24.631  8.25E-06  1.36E-04  3.39E-07  5.58E-06  0.00E+00  0.00E+00  8.59E-06  1.42E-04  1.50E-03  0.03746
    408.   24.510  8.20E-06  1.37E-04  4.99E-07  8.31E-06  0.00E+00  0.00E+00  8.70E-06  1.45E-04  1.52E-03  0.05512
    410.   24.390  8.19E-06  1.38E-04  5.40E-07  9.07E-06  0.00E+00  0.00E+00  8.73E-06  1.47E-04  1.54E-03  0.05946
    412.   24.272  8.25E-06  1.40E-04  4.78E-07  8.11E-06  0.00E+00  0.00E+00  8.73E-06  1.48E-04  1.56E-03  0.05256
    414.   24.155  8.35E-06  1.43E-04  2.55E-07  4.38E-06  0.00E+00  0.00E+00  8.60E-06  1.47E-04  1.57E-03  0.02803
    416.   24.038  8.05E-06  1.39E-04  4.68E-08  8.09E-07  0.00E+00  0.00E+00  8.10E-06  1.40E-04  1.59E-03  0.00513
    418.   23.923  7.08E-06  1.24E-04  1.90E-09  3.33E-08  0.00E+00  0.00E+00  7.08E-06  1.24E-04  1.60E-03  0.00021
    420.   23.810  7.13E-06  1.26E-04  5.54E-11  9.77E-10  0.00E+00  0.00E+00  7.13E-06  1.26E-04  1.62E-03  0.00001
    422.   23.697  7.87E-06  1.40E-04  2.36E-09  4.21E-08  0.00E+00  0.00E+00  7.87E-06  1.40E-04  1.63E-03  0.00026
    424.   23.585  8.05E-06  1.45E-04  1.03E-08  1.85E-07  0.00E+00  0.00E+00  8.06E-06  1.45E-04  1.65E-03  0.00112
    426.   23.474  8.15E-06  1.48E-04  1.50E-07  2.72E-06  0.00E+00  0.00E+00  8.30E-06  1.51E-04  1.67E-03  0.01624
    428.   23.364  8.23E-06  1.51E-04  5.33E-07  9.76E-06  0.00E+00  0.00E+00  8.76E-06  1.60E-04  1.68E-03  0.05768
    430.   23.256  8.14E-06  1.50E-04  4.24E-07  7.84E-06  0.00E+00  0.00E+00  8.56E-06  1.58E-04  1.70E-03  0.04584
    432.   23.148  8.13E-06  1.52E-04  3.86E-07  7.21E-06  0.00E+00  0.00E+00  8.52E-06  1.59E-04  1.72E-03  0.04167
    434.   23.041  8.21E-06  1.55E-04  5.37E-07  1.01E-05  0.00E+00  0.00E+00  8.74E-06  1.65E-04  1.73E-03  0.05791
    436.   22.936  8.25E-06  1.57E-04  3.59E-07  6.82E-06  0.00E+00  0.00E+00  8.61E-06  1.64E-04  1.75E-03  0.03857
    438.   22.831  8.08E-06  1.55E-04  8.51E-07  1.63E-05  0.00E+00  0.00E+00  8.93E-06  1.71E-04  1.77E-03  0.09138
    440.   22.727  7.98E-06  1.54E-04  6.99E-07  1.35E-05  0.00E+00  0.00E+00  8.68E-06  1.68E-04  1.79E-03  0.07501
    442.   22.624  7.80E-06  1.52E-04  1.03E-07  2.01E-06  0.00E+00  0.00E+00  7.90E-06  1.54E-04  1.80E-03  0.01105
    444.   22.523  8.06E-06  1.59E-04  2.19E-07  4.31E-06  0.00E+00  0.00E+00  8.27E-06  1.63E-04  1.82E-03  0.02336
    446.   22.422  8.24E-06  1.64E-04  4.55E-07  9.06E-06  0.00E+00  0.00E+00  8.69E-06  1.73E-04  1.84E-03  0.04862
    448.   22.321  7.77E-06  1.56E-04  1.18E-06  2.36E-05  0.00E+00  0.00E+00  8.94E-06  1.80E-04  1.85E-03  0.12543
    450.   22.222  7.71E-06  1.56E-04  1.39E-06  2.82E-05  0.00E+00  0.00E+00  9.11E-06  1.84E-04  1.87E-03  0.14837
    452.   22.124  8.17E-06  1.67E-04  5.62E-07  1.15E-05  0.00E+00  0.00E+00  8.74E-06  1.78E-04  1.89E-03  0.05979
    454.   22.026  8.39E-06  1.73E-04  3.21E-07  6.61E-06  0.00E+00  0.00E+00  8.71E-06  1.80E-04  1.91E-03  0.03410
    456.   21.930  8.01E-06  1.67E-04  1.62E-07  3.36E-06  0.00E+00  0.00E+00  8.18E-06  1.70E-04  1.92E-03  0.01717
    458.   21.834  7.60E-06  1.60E-04  5.98E-08  1.25E-06  0.00E+00  0.00E+00  7.66E-06  1.61E-04  1.94E-03  0.00633
    460.   21.739  8.22E-06  1.74E-04  3.80E-07  8.03E-06  0.00E+00  0.00E+00  8.60E-06  1.82E-04  1.96E-03  0.04020
    462.   21.645  7.75E-06  1.65E-04  1.34E-06  2.86E-05  0.00E+00  0.00E+00  9.09E-06  1.94E-04  1.97E-03  0.14160
    464.   21.552  6.91E-06  1.49E-04  2.37E-06  5.10E-05  0.00E+00  0.00E+00  9.28E-06  2.00E-04  1.99E-03  0.25041
    466.   21.459  7.27E-06  1.58E-04  1.88E-06  4.09E-05  0.00E+00  0.00E+00  9.15E-06  1.99E-04  2.01E-03  0.19891
    468.   21.368  8.07E-06  1.77E-04  8.20E-07  1.80E-05  0.00E+00  0.00E+00  8.89E-06  1.95E-04  2.03E-03  0.08656
    470.   21.277  8.13E-06  1.79E-04  6.16E-07  1.36E-05  0.00E+00  0.00E+00  8.74E-06  1.93E-04  2.05E-03  0.06498
    472.   21.186  7.75E-06  1.73E-04  1.71E-07  3.81E-06  0.00E+00  0.00E+00  7.92E-06  1.77E-04  2.06E-03  0.01805
    474.   21.097  7.83E-06  1.76E-04  5.42E-07  1.22E-05  0.00E+00  0.00E+00  8.37E-06  1.88E-04  2.08E-03  0.05712
    476.   21.008  7.31E-06  1.66E-04  1.86E-06  4.22E-05  0.00E+00  0.00E+00  9.17E-06  2.08E-04  2.10E-03  0.19615
    478.   20.921  6.11E-06  1.40E-04  3.24E-06  7.40E-05  0.00E+00  0.00E+00  9.35E-06  2.14E-04  2.12E-03  0.34075
    480.   20.833  6.42E-06  1.48E-04  2.90E-06  6.69E-05  0.00E+00  0.00E+00  9.33E-06  2.15E-04  2.14E-03  0.30544
    482.   20.747  7.53E-06  1.75E-04  1.36E-06  3.16E-05  0.00E+00  0.00E+00  8.89E-06  2.07E-04  2.15E-03  0.14283
    484.   20.661  7.93E-06  1.86E-04  4.94E-07  1.16E-05  0.00E+00  0.00E+00  8.43E-06  1.97E-04  2.17E-03  0.05192
    486.   20.576  7.31E-06  1.73E-04  1.67E-06  3.95E-05  0.00E+00  0.00E+00  8.98E-06  2.12E-04  2.19E-03  0.17581
    488.   20.492  5.73E-06  1.37E-04  3.64E-06  8.67E-05  0.00E+00  0.00E+00  9.38E-06  2.23E-04  2.21E-03  0.38251
    490.   20.408  6.03E-06  1.45E-04  3.23E-06  7.76E-05  0.00E+00  0.00E+00  9.26E-06  2.22E-04  2.23E-03  0.33943
    492.   20.325  7.44E-06  1.80E-04  1.42E-06  3.45E-05  0.00E+00  0.00E+00  8.87E-06  2.15E-04  2.24E-03  0.14948
    494.   20.243  6.46E-06  1.58E-04  2.73E-06  6.67E-05  0.00E+00  0.00E+00  9.19E-06  2.24E-04  2.26E-03  0.28659
    496.   20.161  4.57E-06  1.12E-04  4.90E-06  1.20E-04  0.00E+00  0.00E+00  9.46E-06  2.33E-04  2.28E-03  0.51364
    498.   20.080  4.51E-06  1.12E-04  4.96E-06  1.23E-04  0.00E+00  0.00E+00  9.47E-06  2.35E-04  2.30E-03  0.52033
    500.   20.000  6.13E-06  1.53E-04  3.07E-06  7.68E-05  0.00E+00  0.00E+00  9.20E-06  2.30E-04  2.32E-03  0.32200
  iv          505
1                                             RADIANCE(WATTS/CM2-STER-XXX)
0  FREQ   WAVLEN    PATH THERMAL      SURFACE EMISSION    SURFACE REFLECTED     TOTAL RADIANCE   INTEGRAL    TOTAL
  (CM-1) (MICRN)    (CM-1)   (MICRN)    (CM-1)   (MICRN)    (CM-1)   (MICRN)    (CM-1)   (MICRN)    (CM-1)   TRANS

    502.   19.920  7.83E-06  1.97E-04  8.08E-07  2.04E-05  0.00E+00  0.00E+00  8.64E-06  2.18E-04  2.33E-03  0.08468
    504.   19.841  7.95E-06  2.02E-04  9.53E-07  2.42E-05  0.00E+00  0.00E+00  8.91E-06  2.26E-04  2.35E-03  0.09989
    506.   19.763  7.87E-06  2.02E-04  8.29E-07  2.12E-05  0.00E+00  0.00E+00  8.70E-06  2.23E-04  2.37E-03  0.08698
    508.   19.685  7.21E-06  1.86E-04  1.66E-06  4.29E-05  0.00E+00  0.00E+00  8.87E-06  2.29E-04  2.39E-03  0.17440
    510.   19.608  6.60E-06  1.72E-04  2.68E-06  6.98E-05  0.00E+00  0.00E+00  9.28E-06  2.41E-04  2.41E-03  0.28147
    512.   19.531  5.91E-06  1.55E-04  3.40E-06  8.91E-05  0.00E+00  0.00E+00  9.31E-06  2.44E-04  2.42E-03  0.35630
    514.   19.455  5.95E-06  1.57E-04  3.40E-06  8.99E-05  0.00E+00  0.00E+00  9.35E-06  2.47E-04  2.44E-03  0.35693
    516.   19.380  7.73E-06  2.06E-04  1.04E-06  2.78E-05  0.00E+00  0.00E+00  8.78E-06  2.34E-04  2.46E-03  0.10954
    518.   19.305  8.22E-06  2.20E-04  1.56E-07  4.19E-06  0.00E+00  0.00E+00  8.37E-06  2.25E-04  2.48E-03  0.01637
    520.   19.231  7.37E-06  1.99E-04  1.35E-06  3.65E-05  0.00E+00  0.00E+00  8.72E-06  2.36E-04  2.50E-03  0.14189
    522.   19.157  5.45E-06  1.48E-04  3.82E-06  1.04E-04  0.00E+00  0.00E+00  9.27E-06  2.53E-04  2.51E-03  0.40154
    524.   19.084  6.30E-06  1.73E-04  2.80E-06  7.69E-05  0.00E+00  0.00E+00  9.10E-06  2.50E-04  2.53E-03  0.29396
    526.   19.011  7.21E-06  1.99E-04  1.49E-06  4.12E-05  0.00E+00  0.00E+00  8.70E-06  2.41E-04  2.55E-03  0.15663
    528.   18.939  5.14E-06  1.43E-04  4.09E-06  1.14E-04  0.00E+00  0.00E+00  9.22E-06  2.57E-04  2.57E-03  0.42958
    530.   18.868  3.39E-06  9.52E-05  6.06E-06  1.70E-04  0.00E+00  0.00E+00  9.45E-06  2.66E-04  2.59E-03  0.63750
    532.   18.797  3.14E-06  8.89E-05  6.31E-06  1.79E-04  0.00E+00  0.00E+00  9.45E-06  2.68E-04  2.61E-03  0.66428
    534.   18.727  4.24E-06  1.21E-04  5.08E-06  1.45E-04  0.00E+00  0.00E+00  9.32E-06  2.66E-04  2.62E-03  0.53440
    536.   18.657  5.72E-06  1.64E-04  3.34E-06  9.58E-05  0.00E+00  0.00E+00  9.06E-06  2.60E-04  2.64E-03  0.35128
    538.   18.587  4.41E-06  1.28E-04  4.89E-06  1.41E-04  0.00E+00  0.00E+00  9.29E-06  2.69E-04  2.66E-03  0.51510
    540.   18.519  4.04E-06  1.18E-04  5.26E-06  1.53E-04  0.00E+00  0.00E+00  9.30E-06  2.71E-04  2.68E-03  0.55475
    542.   18.450  4.51E-06  1.33E-04  4.76E-06  1.40E-04  0.00E+00  0.00E+00  9.27E-06  2.72E-04  2.70E-03  0.50199
    544.   18.382  5.40E-06  1.60E-04  3.52E-06  1.04E-04  0.00E+00  0.00E+00  8.92E-06  2.64E-04  2.72E-03  0.37108
    546.   18.315  7.38E-06  2.20E-04  1.17E-06  3.49E-05  0.00E+00  0.00E+00  8.55E-06  2.55E-04  2.73E-03  0.12366
    548.   18.248  6.55E-06  1.97E-04  2.38E-06  7.15E-05  0.00E+00  0.00E+00  8.94E-06  2.68E-04  2.75E-03  0.25183
    550.   18.182  5.48E-06  1.66E-04  3.61E-06  1.09E-04  0.00E+00  0.00E+00  9.09E-06  2.75E-04  2.77E-03  0.38181
    552.   18.116  4.30E-06  1.31E-04  4.98E-06  1.52E-04  0.00E+00  0.00E+00  9.28E-06  2.83E-04  2.79E-03  0.52770
    554.   18.051  4.54E-06  1.39E-04  4.64E-06  1.43E-04  0.00E+00  0.00E+00  9.19E-06  2.82E-04  2.81E-03  0.49217
    556.   17.986  4.30E-06  1.33E-04  4.87E-06  1.51E-04  0.00E+00  0.00E+00  9.17E-06  2.84E-04  2.82E-03  0.51680
    558.   17.921  2.95E-06  9.18E-05  6.39E-06  1.99E-04  0.00E+00  0.00E+00  9.34E-06  2.91E-04  2.84E-03  0.67879
    560.   17.857  2.43E-06  7.61E-05  6.93E-06  2.17E-04  0.00E+00  0.00E+00  9.35E-06  2.93E-04  2.86E-03  0.73614
    562.   17.794  3.63E-06  1.15E-04  5.53E-06  1.75E-04  0.00E+00  0.00E+00  9.17E-06  2.90E-04  2.88E-03  0.58876
    564.   17.730  4.52E-06  1.44E-04  4.60E-06  1.46E-04  0.00E+00  0.00E+00  9.13E-06  2.90E-04  2.90E-03  0.49004
    566.   17.668  5.20E-06  1.66E-04  3.77E-06  1.21E-04  0.00E+00  0.00E+00  8.96E-06  2.87E-04  2.92E-03  0.40128
    568.   17.606  7.29E-06  2.35E-04  1.29E-06  4.15E-05  0.00E+00  0.00E+00  8.58E-06  2.77E-04  2.93E-03  0.13739
    570.   17.544  6.92E-06  2.25E-04  1.86E-06  6.03E-05  0.00E+00  0.00E+00  8.78E-06  2.85E-04  2.95E-03  0.19851
    572.   17.483  4.57E-06  1.50E-04  4.52E-06  1.48E-04  0.00E+00  0.00E+00  9.09E-06  2.97E-04  2.97E-03  0.48326
    574.   17.422  4.18E-06  1.38E-04  4.79E-06  1.58E-04  0.00E+00  0.00E+00  8.97E-06  2.96E-04  2.99E-03  0.51335
    576.   17.361  6.06E-06  2.01E-04  2.55E-06  8.46E-05  0.00E+00  0.00E+00  8.61E-06  2.86E-04  3.00E-03  0.27327
    578.   17.301  5.78E-06  1.93E-04  2.95E-06  9.85E-05  0.00E+00  0.00E+00  8.72E-06  2.91E-04  3.02E-03  0.31646
    580.   17.241  5.92E-06  1.99E-04  2.56E-06  8.62E-05  0.00E+00  0.00E+00  8.48E-06  2.85E-04  3.04E-03  0.27548
    582.   17.182  6.14E-06  2.08E-04  2.16E-06  7.32E-05  0.00E+00  0.00E+00  8.30E-06  2.81E-04  3.06E-03  0.23250
    584.   17.123  5.91E-06  2.01E-04  2.39E-06  8.15E-05  0.00E+00  0.00E+00  8.30E-06  2.83E-04  3.07E-03  0.25746
    586.   17.065  5.91E-06  2.03E-04  2.15E-06  7.39E-05  0.00E+00  0.00E+00  8.06E-06  2.77E-04  3.09E-03  0.23214
    588.   17.007  5.58E-06  1.93E-04  2.37E-06  8.18E-05  0.00E+00  0.00E+00  7.95E-06  2.75E-04  3.10E-03  0.25573
    590.   16.949  6.38E-06  2.22E-04  1.27E-06  4.43E-05  0.00E+00  0.00E+00  7.65E-06  2.66E-04  3.12E-03  0.13757
    592.   16.892  6.89E-06  2.42E-04  4.79E-07  1.68E-05  0.00E+00  0.00E+00  7.37E-06  2.58E-04  3.13E-03  0.05186
    594.   16.835  6.65E-06  2.35E-04  3.84E-07  1.36E-05  0.00E+00  0.00E+00  7.03E-06  2.48E-04  3.15E-03  0.04171
    596.   16.779  6.25E-06  2.22E-04  2.82E-07  1.00E-05  0.00E+00  0.00E+00  6.53E-06  2.32E-04  3.16E-03  0.03070
    598.   16.722  6.19E-06  2.22E-04  4.52E-07  1.62E-05  0.00E+00  0.00E+00  6.65E-06  2.38E-04  3.17E-03  0.04922
    600.   16.667  6.40E-06  2.30E-04  6.38E-07  2.30E-05  0.00E+00  0.00E+00  7.04E-06  2.53E-04  3.19E-03  0.06955
  iv          605
1                                             RADIANCE(WATTS/CM2-STER-XXX)
0  FREQ   WAVLEN    PATH THERMAL      SURFACE EMISSION    SURFACE REFLECTED     TOTAL RADIANCE   INTEGRAL    TOTAL
  (CM-1) (MICRN)    (CM-1)   (MICRN)    (CM-1)   (MICRN)    (CM-1)   (MICRN)    (CM-1)   (MICRN)    (CM-1)   TRANS

    602.   16.611  6.24E-06  2.26E-04  5.14E-07  1.86E-05  0.00E+00  0.00E+00  6.76E-06  2.45E-04  3.20E-03  0.05609
    604.   16.556  6.22E-06  2.27E-04  2.87E-07  1.05E-05  0.00E+00  0.00E+00  6.50E-06  2.37E-04  3.22E-03  0.03133
    606.   16.502  6.08E-06  2.23E-04  2.11E-07  7.75E-06  0.00E+00  0.00E+00  6.29E-06  2.31E-04  3.23E-03  0.02312
    608.   16.447  6.01E-06  2.22E-04  1.89E-07  6.99E-06  0.00E+00  0.00E+00  6.20E-06  2.29E-04  3.24E-03  0.02074
    610.   16.393  6.12E-06  2.28E-04  2.55E-07  9.50E-06  0.00E+00  0.00E+00  6.37E-06  2.37E-04  3.25E-03  0.02809
    612.   16.340  6.11E-06  2.29E-04  2.97E-07  1.11E-05  0.00E+00  0.00E+00  6.41E-06  2.40E-04  3.27E-03  0.03268
    614.   16.287  5.87E-06  2.21E-04  1.32E-07  4.98E-06  0.00E+00  0.00E+00  6.00E-06  2.26E-04  3.28E-03  0.01457
    616.   16.234  5.35E-06  2.03E-04  2.63E-08  9.97E-07  0.00E+00  0.00E+00  5.38E-06  2.04E-04  3.29E-03  0.00290
    618.   16.181  5.19E-06  1.98E-04  1.27E-08  4.87E-07  0.00E+00  0.00E+00  5.20E-06  1.99E-04  3.30E-03  0.00141
    620.   16.129  5.64E-06  2.17E-04  4.87E-08  1.87E-06  0.00E+00  0.00E+00  5.69E-06  2.19E-04  3.31E-03  0.00541
    622.   16.077  5.63E-06  2.18E-04  5.56E-08  2.15E-06  0.00E+00  0.00E+00  5.68E-06  2.20E-04  3.32E-03  0.00618
    624.   16.026  5.38E-06  2.10E-04  2.91E-08  1.13E-06  0.00E+00  0.00E+00  5.41E-06  2.11E-04  3.33E-03  0.00323
    626.   15.974  5.18E-06  2.03E-04  3.28E-09  1.28E-07  0.00E+00  0.00E+00  5.19E-06  2.03E-04  3.34E-03  0.00037
    628.   15.924  5.00E-06  1.97E-04  1.09E-09  4.30E-08  0.00E+00  0.00E+00  5.00E-06  1.97E-04  3.35E-03  0.00012
    630.   15.873  4.88E-06  1.94E-04  2.79E-10  1.11E-08  0.00E+00  0.00E+00  4.88E-06  1.94E-04  3.36E-03  0.00003
    632.   15.823  4.79E-06  1.91E-04  4.12E-11  1.64E-09  0.00E+00  0.00E+00  4.79E-06  1.91E-04  3.37E-03  0.00000
    634.   15.773  4.72E-06  1.90E-04  5.36E-12  2.15E-10  0.00E+00  0.00E+00  4.72E-06  1.90E-04  3.38E-03  0.00000
    636.   15.723  4.66E-06  1.88E-04  2.03E-13  8.23E-12  0.00E+00  0.00E+00  4.66E-06  1.88E-04  3.39E-03  0.00000
    638.   15.674  4.62E-06  1.88E-04  7.19E-16  2.93E-14  0.00E+00  0.00E+00  4.62E-06  1.88E-04  3.40E-03  0.00000
    640.   15.625  4.59E-06  1.88E-04  5.86E-17  2.40E-15  0.00E+00  0.00E+00  4.59E-06  1.88E-04  3.41E-03  0.00000
    642.   15.576  4.57E-06  1.88E-04  9.73E-19  4.01E-17  0.00E+00  0.00E+00  4.57E-06  1.88E-04  3.42E-03  0.00000
    644.   15.528  4.56E-06  1.89E-04  4.76E-22  1.98E-20  0.00E+00  0.00E+00  4.56E-06  1.89E-04  3.43E-03  0.00000
    646.   15.480  4.56E-06  1.90E-04  1.35E-23  5.63E-22  0.00E+00  0.00E+00  4.56E-06  1.90E-04  3.44E-03  0.00000
    648.   15.432  4.66E-06  1.96E-04  5.90E-26  2.48E-24  0.00E+00  0.00E+00  4.66E-06  1.96E-04  3.45E-03  0.00000
    650.   15.385  4.66E-06  1.97E-04  5.35E-32  2.26E-30  0.00E+00  0.00E+00  4.66E-06  1.97E-04  3.46E-03  0.00000
    652.   15.337  4.52E-06  1.92E-04  1.69E-31  7.18E-30  0.00E+00  0.00E+00  4.52E-06  1.92E-04  3.46E-03  0.00000
    654.   15.291  4.47E-06  1.91E-04  7.89E-27  3.38E-25  0.00E+00  0.00E+00  4.47E-06  1.91E-04  3.47E-03  0.00000
    656.   15.244  4.46E-06  1.92E-04  7.89E-27  3.40E-25  0.00E+00  0.00E+00  4.46E-06  1.92E-04  3.48E-03  0.00000
    658.   15.198  4.46E-06  1.93E-04  3.48E-32  1.51E-30  0.00E+00  0.00E+00  4.46E-06  1.93E-04  3.49E-03  0.00000
    660.   15.152  4.43E-06  1.93E-04  2.31E-32  1.01E-30  0.00E+00  0.00E+00  4.43E-06  1.93E-04  3.50E-03  0.00000
    662.   15.106  4.51E-06  1.98E-04  1.18E-32  5.19E-31  0.00E+00  0.00E+00  4.51E-06  1.98E-04  3.51E-03  0.00000
    664.   15.060  4.50E-06  1.99E-04  0.00E+00  0.00E+00  0.00E+00  0.00E+00  4.50E-06  1.99E-04  3.52E-03  0.00000
    666.   15.015  4.87E-06  2.16E-04  0.00E+00  0.00E+00  0.00E+00  0.00E+00  4.87E-06  2.16E-04  3.53E-03  0.00000
    668.   14.970  5.55E-06  2.48E-04  0.00E+00  0.00E+00  0.00E+00  0.00E+00  5.55E-06  2.48E-04  3.54E-03  0.00000
    670.   14.925  4.86E-06  2.18E-04  0.00E+00  0.00E+00  0.00E+00  0.00E+00  4.86E-06  2.18E-04  3.55E-03  0.00000
    672.   14.881  4.37E-06  1.97E-04  6.76E-38  3.05E-36  0.00E+00  0.00E+00  4.37E-06  1.97E-04  3.56E-03  0.00000
    674.   14.837  4.33E-06  1.96E-04  2.39E-32  1.08E-30  0.00E+00  0.00E+00  4.33E-06  1.96E-04  3.57E-03  0.00000
    676.   14.793  4.28E-06  1.96E-04  7.16E-32  3.27E-30  0.00E+00  0.00E+00  4.28E-06  1.96E-04  3.57E-03  0.00000
    678.   14.749  4.28E-06  1.97E-04  2.39E-32  1.10E-30  0.00E+00  0.00E+00  4.28E-06  1.97E-04  3.58E-03  0.00000
    680.   14.706  4.26E-06  1.97E-04  3.32E-38  1.54E-36  0.00E+00  0.00E+00  4.26E-06  1.97E-04  3.59E-03  0.00000
    682.   14.663  4.23E-06  1.97E-04  7.68E-29  3.57E-27  0.00E+00  0.00E+00  4.23E-06  1.97E-04  3.60E-03  0.00000
    684.   14.620  4.19E-06  1.96E-04  2.69E-28  1.26E-26  0.00E+00  0.00E+00  4.19E-06  1.96E-04  3.61E-03  0.00000
    686.   14.577  4.18E-06  1.97E-04  1.94E-28  9.14E-27  0.00E+00  0.00E+00  4.18E-06  1.97E-04  3.62E-03  0.00000
    688.   14.535  4.15E-06  1.97E-04  1.29E-27  6.11E-26  0.00E+00  0.00E+00  4.15E-06  1.97E-04  3.63E-03  0.00000
    690.   14.493  4.14E-06  1.97E-04  4.43E-20  2.11E-18  0.00E+00  0.00E+00  4.14E-06  1.97E-04  3.63E-03  0.00000
    692.   14.451  4.10E-06  1.96E-04  5.72E-19  2.74E-17  0.00E+00  0.00E+00  4.10E-06  1.96E-04  3.64E-03  0.00000
    694.   14.409  4.08E-06  1.97E-04  1.96E-18  9.43E-17  0.00E+00  0.00E+00  4.08E-06  1.97E-04  3.65E-03  0.00000
    696.   14.368  4.06E-06  1.97E-04  1.27E-16  6.16E-15  0.00E+00  0.00E+00  4.06E-06  1.97E-04  3.66E-03  0.00000
    698.   14.327  4.06E-06  1.98E-04  1.74E-13  8.48E-12  0.00E+00  0.00E+00  4.06E-06  1.98E-04  3.67E-03  0.00000
    700.   14.286  4.07E-06  1.99E-04  5.61E-13  2.75E-11  0.00E+00  0.00E+00  4.07E-06  1.99E-04  3.67E-03  0.00000
  iv          705
1                                             RADIANCE(WATTS/CM2-STER-XXX)
0  FREQ   WAVLEN    PATH THERMAL      SURFACE EMISSION    SURFACE REFLECTED     TOTAL RADIANCE   INTEGRAL    TOTAL
  (CM-1) (MICRN)    (CM-1)   (MICRN)    (CM-1)   (MICRN)    (CM-1)   (MICRN)    (CM-1)   (MICRN)    (CM-1)   TRANS

    702.   14.245  4.07E-06  2.00E-04  3.49E-13  1.72E-11  0.00E+00  0.00E+00  4.07E-06  2.00E-04  3.68E-03  0.00000
    704.   14.205  4.15E-06  2.06E-04  4.72E-11  2.34E-09  0.00E+00  0.00E+00  4.15E-06  2.06E-04  3.69E-03  0.00001
    706.   14.164  4.28E-06  2.13E-04  2.98E-10  1.48E-08  0.00E+00  0.00E+00  4.28E-06  2.13E-04  3.70E-03  0.00004
    708.   14.124  4.35E-06  2.18E-04  1.61E-09  8.07E-08  0.00E+00  0.00E+00  4.35E-06  2.18E-04  3.71E-03  0.00020
    710.   14.085  4.42E-06  2.23E-04  7.38E-09  3.72E-07  0.00E+00  0.00E+00  4.43E-06  2.23E-04  3.72E-03  0.00091
    712.   14.045  4.57E-06  2.32E-04  2.06E-08  1.04E-06  0.00E+00  0.00E+00  4.59E-06  2.33E-04  3.73E-03  0.00255
    714.   14.006  4.71E-06  2.40E-04  3.60E-08  1.83E-06  0.00E+00  0.00E+00  4.74E-06  2.42E-04  3.74E-03  0.00447
    716.   13.966  4.72E-06  2.42E-04  4.62E-08  2.37E-06  0.00E+00  0.00E+00  4.77E-06  2.45E-04  3.74E-03  0.00577
    718.   13.928  4.38E-06  2.26E-04  2.00E-08  1.03E-06  0.00E+00  0.00E+00  4.40E-06  2.27E-04  3.75E-03  0.00250
    720.   13.889  4.08E-06  2.11E-04  9.11E-10  4.72E-08  0.00E+00  0.00E+00  4.08E-06  2.11E-04  3.76E-03  0.00011
    722.   13.850  4.58E-06  2.39E-04  1.04E-07  5.44E-06  0.00E+00  0.00E+00  4.68E-06  2.44E-04  3.77E-03  0.01315
    724.   13.812  4.94E-06  2.59E-04  3.63E-07  1.90E-05  0.00E+00  0.00E+00  5.31E-06  2.78E-04  3.78E-03  0.04588
    726.   13.774  4.97E-06  2.62E-04  6.35E-07  3.34E-05  0.00E+00  0.00E+00  5.60E-06  2.95E-04  3.79E-03  0.08036
    728.   13.736  4.99E-06  2.65E-04  4.25E-07  2.25E-05  0.00E+00  0.00E+00  5.42E-06  2.87E-04  3.80E-03  0.05393
    730.   13.699  4.89E-06  2.61E-04  2.29E-07  1.22E-05  0.00E+00  0.00E+00  5.12E-06  2.73E-04  3.81E-03  0.02911
    732.   13.661  4.88E-06  2.62E-04  2.18E-07  1.17E-05  0.00E+00  0.00E+00  5.10E-06  2.73E-04  3.82E-03  0.02782
    734.   13.624  4.89E-06  2.63E-04  2.55E-07  1.37E-05  0.00E+00  0.00E+00  5.14E-06  2.77E-04  3.83E-03  0.03271
    736.   13.587  4.87E-06  2.64E-04  2.80E-07  1.52E-05  0.00E+00  0.00E+00  5.15E-06  2.79E-04  3.84E-03  0.03606
    738.   13.550  4.87E-06  2.65E-04  2.63E-07  1.43E-05  0.00E+00  0.00E+00  5.13E-06  2.80E-04  3.86E-03  0.03388
    740.   13.514  4.75E-06  2.60E-04  1.85E-07  1.02E-05  0.00E+00  0.00E+00  4.93E-06  2.70E-04  3.87E-03  0.02399
    742.   13.477  4.59E-06  2.52E-04  4.43E-07  2.44E-05  0.00E+00  0.00E+00  5.03E-06  2.77E-04  3.88E-03  0.05763
    744.   13.441  4.70E-06  2.60E-04  1.01E-06  5.58E-05  0.00E+00  0.00E+00  5.70E-06  3.16E-04  3.89E-03  0.13151
    746.   13.405  4.58E-06  2.55E-04  1.43E-06  7.96E-05  0.00E+00  0.00E+00  6.01E-06  3.34E-04  3.90E-03  0.18709
    748.   13.369  4.39E-06  2.45E-04  1.75E-06  9.78E-05  0.00E+00  0.00E+00  6.13E-06  3.43E-04  3.91E-03  0.22942
    750.   13.333  4.11E-06  2.31E-04  2.12E-06  1.19E-04  0.00E+00  0.00E+00  6.23E-06  3.51E-04  3.92E-03  0.27906
    752.   13.298  3.91E-06  2.21E-04  2.48E-06  1.40E-04  0.00E+00  0.00E+00  6.39E-06  3.61E-04  3.94E-03  0.32763
    754.   13.263  3.95E-06  2.25E-04  2.55E-06  1.45E-04  0.00E+00  0.00E+00  6.51E-06  3.70E-04  3.95E-03  0.33838
    756.   13.228  3.71E-06  2.12E-04  2.87E-06  1.64E-04  0.00E+00  0.00E+00  6.58E-06  3.76E-04  3.96E-03  0.38129
    758.   13.193  2.94E-06  1.69E-04  3.81E-06  2.19E-04  0.00E+00  0.00E+00  6.75E-06  3.88E-04  3.98E-03  0.50886
    760.   13.158  2.26E-06  1.30E-04  4.71E-06  2.72E-04  0.00E+00  0.00E+00  6.97E-06  4.02E-04  3.99E-03  0.63031
    762.   13.123  1.86E-06  1.08E-04  5.20E-06  3.02E-04  0.00E+00  0.00E+00  7.06E-06  4.10E-04  4.00E-03  0.69918
    764.   13.089  1.52E-06  8.88E-05  5.59E-06  3.26E-04  0.00E+00  0.00E+00  7.11E-06  4.15E-04  4.02E-03  0.75347
    766.   13.055  1.27E-06  7.44E-05  5.89E-06  3.46E-04  0.00E+00  0.00E+00  7.16E-06  4.20E-04  4.03E-03  0.79655
    768.   13.021  1.30E-06  7.66E-05  5.87E-06  3.46E-04  0.00E+00  0.00E+00  7.17E-06  4.23E-04  4.05E-03  0.79703
    770.   12.987  1.25E-06  7.42E-05  5.91E-06  3.51E-04  0.00E+00  0.00E+00  7.16E-06  4.25E-04  4.06E-03  0.80544
    772.   12.953  8.10E-07  4.83E-05  6.37E-06  3.80E-04  0.00E+00  0.00E+00  7.18E-06  4.28E-04  4.08E-03  0.87090
    774.   12.920  7.80E-07  4.67E-05  6.39E-06  3.83E-04  0.00E+00  0.00E+00  7.17E-06  4.30E-04  4.09E-03  0.87689
    776.   12.887  1.22E-06  7.36E-05  5.91E-06  3.56E-04  0.00E+00  0.00E+00  7.13E-06  4.29E-04  4.10E-03  0.81351
    778.   12.853  1.07E-06  6.45E-05  6.06E-06  3.67E-04  0.00E+00  0.00E+00  7.12E-06  4.31E-04  4.12E-03  0.83696
    780.   12.821  6.21E-07  3.78E-05  6.51E-06  3.96E-04  0.00E+00  0.00E+00  7.13E-06  4.34E-04  4.13E-03  0.90219
    782.   12.788  7.03E-07  4.30E-05  6.39E-06  3.91E-04  0.00E+00  0.00E+00  7.09E-06  4.34E-04  4.15E-03  0.88881
    784.   12.755  1.18E-06  7.22E-05  5.86E-06  3.60E-04  0.00E+00  0.00E+00  7.04E-06  4.33E-04  4.16E-03  0.81880
    786.   12.723  6.62E-07  4.09E-05  6.39E-06  3.95E-04  0.00E+00  0.00E+00  7.06E-06  4.36E-04  4.17E-03  0.89661
    788.   12.690  3.14E-07  1.95E-05  6.75E-06  4.19E-04  0.00E+00  0.00E+00  7.06E-06  4.38E-04  4.19E-03  0.94944
    790.   12.658  8.99E-07  5.61E-05  5.98E-06  3.73E-04  0.00E+00  0.00E+00  6.88E-06  4.29E-04  4.20E-03  0.84408
    792.   12.626  1.90E-06  1.19E-04  4.69E-06  2.94E-04  0.00E+00  0.00E+00  6.60E-06  4.14E-04  4.22E-03  0.66532
    794.   12.594  1.49E-06  9.39E-05  5.31E-06  3.35E-04  0.00E+00  0.00E+00  6.80E-06  4.29E-04  4.23E-03  0.75595
    796.   12.563  1.38E-06  8.74E-05  5.48E-06  3.48E-04  0.00E+00  0.00E+00  6.86E-06  4.35E-04  4.24E-03  0.78339
    798.   12.531  1.54E-06  9.83E-05  5.28E-06  3.36E-04  0.00E+00  0.00E+00  6.82E-06  4.34E-04  4.26E-03  0.75654
    800.   12.500  1.12E-06  7.20E-05  5.70E-06  3.65E-04  0.00E+00  0.00E+00  6.83E-06  4.37E-04  4.27E-03  0.82102
  iv          805
1                                             RADIANCE(WATTS/CM2-STER-XXX)
0  FREQ   WAVLEN    PATH THERMAL      SURFACE EMISSION    SURFACE REFLECTED     TOTAL RADIANCE   INTEGRAL    TOTAL
  (CM-1) (MICRN)    (CM-1)   (MICRN)    (CM-1)   (MICRN)    (CM-1)   (MICRN)    (CM-1)   (MICRN)    (CM-1)   TRANS

    802.   12.469  6.48E-07  4.17E-05  6.20E-06  3.99E-04  0.00E+00  0.00E+00  6.85E-06  4.40E-04  4.28E-03  0.89554
    804.   12.438  8.23E-07  5.32E-05  5.99E-06  3.87E-04  0.00E+00  0.00E+00  6.82E-06  4.41E-04  4.30E-03  0.86923
    806.   12.407  6.15E-07  4.00E-05  6.19E-06  4.02E-04  0.00E+00  0.00E+00  6.80E-06  4.42E-04  4.31E-03  0.90044
    808.   12.376  6.84E-07  4.47E-05  6.09E-06  3.98E-04  0.00E+00  0.00E+00  6.78E-06  4.42E-04  4.33E-03  0.89010
    810.   12.346  4.46E-07  2.93E-05  6.32E-06  4.15E-04  0.00E+00  0.00E+00  6.77E-06  4.44E-04  4.34E-03  0.92709
    812.   12.315  3.62E-07  2.38E-05  6.39E-06  4.21E-04  0.00E+00  0.00E+00  6.75E-06  4.45E-04  4.35E-03  0.94072
    814.   12.285  5.36E-07  3.55E-05  6.19E-06  4.10E-04  0.00E+00  0.00E+00  6.73E-06  4.46E-04  4.37E-03  0.91494
    816.   12.255  4.08E-07  2.72E-05  6.30E-06  4.19E-04  0.00E+00  0.00E+00  6.70E-06  4.46E-04  4.38E-03  0.93469
    818.   12.225  2.13E-07  1.42E-05  6.48E-06  4.33E-04  0.00E+00  0.00E+00  6.69E-06  4.48E-04  4.39E-03  0.96502
    820.   12.195  1.84E-07  1.24E-05  6.48E-06  4.36E-04  0.00E+00  0.00E+00  6.67E-06  4.48E-04  4.41E-03  0.96992
    822.   12.165  1.65E-07  1.11E-05  6.48E-06  4.38E-04  0.00E+00  0.00E+00  6.65E-06  4.49E-04  4.42E-03  0.97330
    824.   12.136  2.34E-07  1.59E-05  6.38E-06  4.33E-04  0.00E+00  0.00E+00  6.62E-06  4.49E-04  4.43E-03  0.96276
    826.   12.107  3.18E-07  2.17E-05  6.27E-06  4.28E-04  0.00E+00  0.00E+00  6.59E-06  4.50E-04  4.45E-03  0.94963
    828.   12.077  3.78E-07  2.59E-05  6.18E-06  4.24E-04  0.00E+00  0.00E+00  6.56E-06  4.50E-04  4.46E-03  0.94010
    830.   12.048  2.01E-07  1.39E-05  6.34E-06  4.37E-04  0.00E+00  0.00E+00  6.54E-06  4.51E-04  4.47E-03  0.96800
    832.   12.019  1.16E-07  8.01E-06  6.41E-06  4.43E-04  0.00E+00  0.00E+00  6.52E-06  4.51E-04  4.48E-03  0.98159
    834.   11.990  1.19E-07  8.29E-06  6.37E-06  4.43E-04  0.00E+00  0.00E+00  6.49E-06  4.52E-04  4.50E-03  0.98090
    836.   11.962  1.32E-07  9.20E-06  6.33E-06  4.43E-04  0.00E+00  0.00E+00  6.47E-06  4.52E-04  4.51E-03  0.97873
    838.   11.933  1.94E-07  1.36E-05  6.24E-06  4.38E-04  0.00E+00  0.00E+00  6.44E-06  4.52E-04  4.52E-03  0.96848
    840.   11.905  3.40E-07  2.40E-05  6.06E-06  4.28E-04  0.00E+00  0.00E+00  6.40E-06  4.52E-04  4.54E-03  0.94453
    842.   11.876  2.55E-07  1.81E-05  6.12E-06  4.34E-04  0.00E+00  0.00E+00  6.37E-06  4.52E-04  4.55E-03  0.95728
    844.   11.848  1.67E-07  1.19E-05  6.18E-06  4.40E-04  0.00E+00  0.00E+00  6.35E-06  4.52E-04  4.56E-03  0.97045
    846.   11.820  1.60E-07  1.14E-05  6.15E-06  4.41E-04  0.00E+00  0.00E+00  6.31E-06  4.52E-04  4.57E-03  0.97081
    848.   11.792  2.38E-07  1.71E-05  6.05E-06  4.35E-04  0.00E+00  0.00E+00  6.28E-06  4.52E-04  4.59E-03  0.95756
    850.   11.765  5.04E-07  3.64E-05  5.74E-06  4.15E-04  0.00E+00  0.00E+00  6.25E-06  4.51E-04  4.60E-03  0.91328
    852.   11.737  6.92E-07  5.02E-05  5.53E-06  4.01E-04  0.00E+00  0.00E+00  6.22E-06  4.51E-04  4.61E-03  0.88284
    854.   11.710  4.74E-07  3.45E-05  5.74E-06  4.18E-04  0.00E+00  0.00E+00  6.21E-06  4.53E-04  4.62E-03  0.92045
    856.   11.682  2.26E-07  1.65E-05  5.97E-06  4.38E-04  0.00E+00  0.00E+00  6.20E-06  4.54E-04  4.64E-03  0.96204
    858.   11.655  1.02E-07  7.54E-06  6.08E-06  4.47E-04  0.00E+00  0.00E+00  6.18E-06  4.55E-04  4.65E-03  0.98280
    860.   11.628  9.57E-08  7.08E-06  6.06E-06  4.48E-04  0.00E+00  0.00E+00  6.15E-06  4.55E-04  4.66E-03  0.98416
    862.   11.601  8.58E-08  6.37E-06  6.04E-06  4.49E-04  0.00E+00  0.00E+00  6.13E-06  4.55E-04  4.67E-03  0.98579
    864.   11.574  1.59E-07  1.18E-05  5.94E-06  4.43E-04  0.00E+00  0.00E+00  6.10E-06  4.55E-04  4.69E-03  0.97339
    866.   11.547  1.55E-07  1.16E-05  5.92E-06  4.44E-04  0.00E+00  0.00E+00  6.07E-06  4.55E-04  4.70E-03  0.97393
    868.   11.521  8.18E-08  6.16E-06  5.97E-06  4.50E-04  0.00E+00  0.00E+00  6.05E-06  4.56E-04  4.71E-03  0.98623
    870.   11.494  1.97E-07  1.49E-05  5.82E-06  4.40E-04  0.00E+00  0.00E+00  6.02E-06  4.55E-04  4.72E-03  0.96598
    872.   11.468  2.02E-07  1.54E-05  5.79E-06  4.40E-04  0.00E+00  0.00E+00  5.99E-06  4.55E-04  4.73E-03  0.96499
    874.   11.442  8.46E-08  6.46E-06  5.88E-06  4.49E-04  0.00E+00  0.00E+00  5.97E-06  4.56E-04  4.75E-03  0.98535
    876.   11.416  8.59E-08  6.59E-06  5.86E-06  4.49E-04  0.00E+00  0.00E+00  5.94E-06  4.56E-04  4.76E-03  0.98496
    878.   11.390  1.46E-07  1.12E-05  5.77E-06  4.45E-04  0.00E+00  0.00E+00  5.91E-06  4.56E-04  4.77E-03  0.97439
    880.   11.364  1.68E-07  1.30E-05  5.72E-06  4.43E-04  0.00E+00  0.00E+00  5.89E-06  4.56E-04  4.78E-03  0.97029
    882.   11.338  1.49E-07  1.16E-05  5.71E-06  4.44E-04  0.00E+00  0.00E+00  5.86E-06  4.56E-04  4.79E-03  0.97344
    884.   11.312  1.81E-07  1.42E-05  5.65E-06  4.42E-04  0.00E+00  0.00E+00  5.83E-06  4.56E-04  4.80E-03  0.96756
    886.   11.287  2.52E-07  1.98E-05  5.55E-06  4.36E-04  0.00E+00  0.00E+00  5.80E-06  4.55E-04  4.82E-03  0.95426
    888.   11.261  2.57E-07  2.03E-05  5.52E-06  4.35E-04  0.00E+00  0.00E+00  5.77E-06  4.55E-04  4.83E-03  0.95319
    890.   11.236  1.35E-07  1.07E-05  5.62E-06  4.45E-04  0.00E+00  0.00E+00  5.76E-06  4.56E-04  4.84E-03  0.97548
    892.   11.211  9.64E-08  7.67E-06  5.64E-06  4.48E-04  0.00E+00  0.00E+00  5.73E-06  4.56E-04  4.85E-03  0.98227
    894.   11.186  7.67E-08  6.13E-06  5.63E-06  4.50E-04  0.00E+00  0.00E+00  5.71E-06  4.56E-04  4.86E-03  0.98578
    896.   11.161  8.02E-08  6.44E-06  5.60E-06  4.50E-04  0.00E+00  0.00E+00  5.68E-06  4.56E-04  4.87E-03  0.98516
    898.   11.136  8.37E-08  6.75E-06  5.57E-06  4.49E-04  0.00E+00  0.00E+00  5.66E-06  4.56E-04  4.88E-03  0.98450
    900.   11.111  7.66E-08  6.21E-06  5.55E-06  4.50E-04  0.00E+00  0.00E+00  5.63E-06  4.56E-04  4.90E-03  0.98571
  iv          905
1                                             RADIANCE(WATTS/CM2-STER-XXX)
0  FREQ   WAVLEN    PATH THERMAL      SURFACE EMISSION    SURFACE REFLECTED     TOTAL RADIANCE   INTEGRAL    TOTAL
  (CM-1) (MICRN)    (CM-1)   (MICRN)    (CM-1)   (MICRN)    (CM-1)   (MICRN)    (CM-1)   (MICRN)    (CM-1)   TRANS

    902.   11.086  7.50E-08  6.10E-06  5.53E-06  4.50E-04  0.00E+00  0.00E+00  5.60E-06  4.56E-04  4.91E-03  0.98591
    904.   11.062  8.60E-08  7.03E-06  5.49E-06  4.49E-04  0.00E+00  0.00E+00  5.58E-06  4.56E-04  4.92E-03  0.98371
    906.   11.038  1.09E-07  8.94E-06  5.44E-06  4.47E-04  0.00E+00  0.00E+00  5.55E-06  4.56E-04  4.93E-03  0.97928
    908.   11.013  2.23E-07  1.83E-05  5.29E-06  4.37E-04  0.00E+00  0.00E+00  5.52E-06  4.55E-04  4.94E-03  0.95728
    910.   10.989  2.18E-07  1.81E-05  5.27E-06  4.36E-04  0.00E+00  0.00E+00  5.49E-06  4.55E-04  4.95E-03  0.95745
    912.   10.965  1.05E-07  8.73E-06  5.36E-06  4.46E-04  0.00E+00  0.00E+00  5.47E-06  4.55E-04  4.96E-03  0.97844
    914.   10.941  1.12E-07  9.37E-06  5.33E-06  4.45E-04  0.00E+00  0.00E+00  5.44E-06  4.54E-04  4.97E-03  0.97659
    916.   10.917  1.12E-07  9.39E-06  5.30E-06  4.45E-04  0.00E+00  0.00E+00  5.41E-06  4.54E-04  4.98E-03  0.97637
    918.   10.893  1.21E-07  1.02E-05  5.27E-06  4.44E-04  0.00E+00  0.00E+00  5.39E-06  4.54E-04  5.00E-03  0.97452
    920.   10.870  1.58E-07  1.34E-05  5.20E-06  4.40E-04  0.00E+00  0.00E+00  5.36E-06  4.53E-04  5.01E-03  0.96663
    922.   10.846  2.39E-07  2.03E-05  5.08E-06  4.32E-04  0.00E+00  0.00E+00  5.32E-06  4.53E-04  5.02E-03  0.94984
    924.   10.823  2.34E-07  1.99E-05  5.07E-06  4.33E-04  0.00E+00  0.00E+00  5.30E-06  4.53E-04  5.03E-03  0.95135
    926.   10.799  1.92E-07  1.64E-05  5.09E-06  4.36E-04  0.00E+00  0.00E+00  5.28E-06  4.53E-04  5.04E-03  0.95968
    928.   10.776  1.32E-07  1.13E-05  5.12E-06  4.41E-04  0.00E+00  0.00E+00  5.25E-06  4.53E-04  5.05E-03  0.97076
    930.   10.753  1.41E-07  1.22E-05  5.09E-06  4.40E-04  0.00E+00  0.00E+00  5.23E-06  4.52E-04  5.06E-03  0.96858
    932.   10.730  1.43E-07  1.24E-05  5.06E-06  4.40E-04  0.00E+00  0.00E+00  5.20E-06  4.52E-04  5.07E-03  0.96849
    934.   10.707  1.44E-07  1.26E-05  5.04E-06  4.39E-04  0.00E+00  0.00E+00  5.18E-06  4.52E-04  5.08E-03  0.96844
    936.   10.684  1.50E-07  1.31E-05  5.01E-06  4.39E-04  0.00E+00  0.00E+00  5.16E-06  4.52E-04  5.09E-03  0.96736
    938.   10.661  1.59E-07  1.40E-05  4.97E-06  4.38E-04  0.00E+00  0.00E+00  5.13E-06  4.51E-04  5.10E-03  0.96520
    940.   10.638  2.02E-07  1.78E-05  4.90E-06  4.33E-04  0.00E+00  0.00E+00  5.10E-06  4.50E-04  5.11E-03  0.95482
    942.   10.616  2.43E-07  2.15E-05  4.82E-06  4.28E-04  0.00E+00  0.00E+00  5.06E-06  4.49E-04  5.12E-03  0.94472
    944.   10.593  2.31E-07  2.06E-05  4.81E-06  4.29E-04  0.00E+00  0.00E+00  5.04E-06  4.49E-04  5.13E-03  0.94717
    946.   10.571  2.82E-07  2.53E-05  4.73E-06  4.23E-04  0.00E+00  0.00E+00  5.01E-06  4.48E-04  5.14E-03  0.93573
    948.   10.549  3.90E-07  3.51E-05  4.58E-06  4.12E-04  0.00E+00  0.00E+00  4.97E-06  4.47E-04  5.15E-03  0.91126
    950.   10.526  2.74E-07  2.47E-05  4.69E-06  4.23E-04  0.00E+00  0.00E+00  4.96E-06  4.48E-04  5.16E-03  0.93655
    952.   10.504  2.11E-07  1.91E-05  4.74E-06  4.29E-04  0.00E+00  0.00E+00  4.95E-06  4.48E-04  5.17E-03  0.95099
    954.   10.482  2.43E-07  2.22E-05  4.67E-06  4.25E-04  0.00E+00  0.00E+00  4.92E-06  4.48E-04  5.18E-03  0.94345
    956.   10.460  2.25E-07  2.06E-05  4.67E-06  4.27E-04  0.00E+00  0.00E+00  4.89E-06  4.47E-04  5.19E-03  0.94710
    958.   10.438  1.45E-07  1.33E-05  4.74E-06  4.35E-04  0.00E+00  0.00E+00  4.88E-06  4.48E-04  5.20E-03  0.96586
    960.   10.417  9.61E-08  8.85E-06  4.77E-06  4.40E-04  0.00E+00  0.00E+00  4.87E-06  4.49E-04  5.21E-03  0.97810
    962.   10.395  8.83E-08  8.18E-06  4.76E-06  4.40E-04  0.00E+00  0.00E+00  4.85E-06  4.49E-04  5.22E-03  0.97948
    964.   10.373  1.40E-07  1.30E-05  4.67E-06  4.34E-04  0.00E+00  0.00E+00  4.81E-06  4.47E-04  5.23E-03  0.96580
    966.   10.352  2.03E-07  1.89E-05  4.57E-06  4.26E-04  0.00E+00  0.00E+00  4.77E-06  4.45E-04  5.24E-03  0.94993
    968.   10.331  2.34E-07  2.20E-05  4.50E-06  4.22E-04  0.00E+00  0.00E+00  4.74E-06  4.44E-04  5.25E-03  0.94112
    970.   10.309  2.68E-07  2.52E-05  4.44E-06  4.18E-04  0.00E+00  0.00E+00  4.71E-06  4.43E-04  5.26E-03  0.93232
    972.   10.288  3.32E-07  3.14E-05  4.34E-06  4.10E-04  0.00E+00  0.00E+00  4.67E-06  4.41E-04  5.27E-03  0.91597
    974.   10.267  3.07E-07  2.91E-05  4.35E-06  4.12E-04  0.00E+00  0.00E+00  4.65E-06  4.42E-04  5.28E-03  0.92225
    976.   10.246  3.39E-07  3.23E-05  4.28E-06  4.08E-04  0.00E+00  0.00E+00  4.62E-06  4.40E-04  5.28E-03  0.91280
    978.   10.225  2.61E-07  2.50E-05  4.34E-06  4.15E-04  0.00E+00  0.00E+00  4.60E-06  4.40E-04  5.29E-03  0.93074
    980.   10.204  2.05E-07  1.97E-05  4.38E-06  4.21E-04  0.00E+00  0.00E+00  4.58E-06  4.40E-04  5.30E-03  0.94318
    982.   10.183  2.04E-07  1.97E-05  4.35E-06  4.19E-04  0.00E+00  0.00E+00  4.55E-06  4.39E-04  5.31E-03  0.94130
    984.   10.163  1.66E-07  1.61E-05  4.36E-06  4.22E-04  0.00E+00  0.00E+00  4.53E-06  4.38E-04  5.32E-03  0.94877
    986.   10.142  1.30E-07  1.27E-05  4.36E-06  4.24E-04  0.00E+00  0.00E+00  4.49E-06  4.36E-04  5.33E-03  0.95356
    988.   10.121  1.35E-07  1.32E-05  4.31E-06  4.20E-04  0.00E+00  0.00E+00  4.44E-06  4.33E-04  5.34E-03  0.94651
    990.   10.101  1.43E-07  1.40E-05  4.24E-06  4.16E-04  0.00E+00  0.00E+00  4.39E-06  4.30E-04  5.35E-03  0.93801
    992.   10.081  1.62E-07  1.60E-05  4.16E-06  4.09E-04  0.00E+00  0.00E+00  4.32E-06  4.25E-04  5.36E-03  0.92307
    994.   10.060  1.85E-07  1.82E-05  4.06E-06  4.02E-04  0.00E+00  0.00E+00  4.25E-06  4.20E-04  5.37E-03  0.90748
    996.   10.040  2.24E-07  2.23E-05  3.93E-06  3.90E-04  0.00E+00  0.00E+00  4.16E-06  4.12E-04  5.37E-03  0.88273
    998.   10.020  2.87E-07  2.86E-05  3.77E-06  3.75E-04  0.00E+00  0.00E+00  4.05E-06  4.04E-04  5.38E-03  0.84939
   1000.   10.000  3.44E-07  3.44E-05  3.60E-06  3.60E-04  0.00E+00  0.00E+00  3.95E-06  3.95E-04  5.39E-03  0.81745
  iv         1005
1                                             RADIANCE(WATTS/CM2-STER-XXX)
0  FREQ   WAVLEN    PATH THERMAL      SURFACE EMISSION    SURFACE REFLECTED     TOTAL RADIANCE   INTEGRAL    TOTAL
  (CM-1) (MICRN)    (CM-1)   (MICRN)    (CM-1)   (MICRN)    (CM-1)   (MICRN)    (CM-1)   (MICRN)    (CM-1)   TRANS

   1002.    9.980  4.00E-07  4.02E-05  3.42E-06  3.43E-04  0.00E+00  0.00E+00  3.82E-06  3.83E-04  5.40E-03  0.77851
   1004.    9.960  4.64E-07  4.68E-05  3.23E-06  3.26E-04  0.00E+00  0.00E+00  3.70E-06  3.73E-04  5.40E-03  0.74070
   1006.    9.940  5.38E-07  5.45E-05  2.99E-06  3.03E-04  0.00E+00  0.00E+00  3.53E-06  3.57E-04  5.41E-03  0.68950
   1008.    9.921  5.83E-07  5.92E-05  2.85E-06  2.90E-04  0.00E+00  0.00E+00  3.43E-06  3.49E-04  5.42E-03  0.66040
   1010.    9.901  6.72E-07  6.85E-05  2.63E-06  2.68E-04  0.00E+00  0.00E+00  3.30E-06  3.37E-04  5.43E-03  0.61214
   1012.    9.881  7.56E-07  7.74E-05  2.39E-06  2.44E-04  0.00E+00  0.00E+00  3.14E-06  3.22E-04  5.43E-03  0.55818
   1014.    9.862  8.22E-07  8.45E-05  2.20E-06  2.27E-04  0.00E+00  0.00E+00  3.03E-06  3.11E-04  5.44E-03  0.51829
   1016.    9.843  8.48E-07  8.75E-05  2.08E-06  2.15E-04  0.00E+00  0.00E+00  2.93E-06  3.03E-04  5.44E-03  0.49259
   1018.    9.823  9.19E-07  9.52E-05  1.87E-06  1.94E-04  0.00E+00  0.00E+00  2.79E-06  2.89E-04  5.45E-03  0.44393
   1020.    9.804  9.56E-07  9.95E-05  1.72E-06  1.79E-04  0.00E+00  0.00E+00  2.68E-06  2.78E-04  5.45E-03  0.41101
   1022.    9.785  9.89E-07  1.03E-04  1.60E-06  1.67E-04  0.00E+00  0.00E+00  2.59E-06  2.70E-04  5.46E-03  0.38419
   1024.    9.766  1.00E-06  1.05E-04  1.53E-06  1.60E-04  0.00E+00  0.00E+00  2.53E-06  2.65E-04  5.46E-03  0.36855
   1026.    9.747  1.00E-06  1.05E-04  1.52E-06  1.60E-04  0.00E+00  0.00E+00  2.52E-06  2.66E-04  5.47E-03  0.36971
   1028.    9.728  1.04E-06  1.10E-04  1.44E-06  1.52E-04  0.00E+00  0.00E+00  2.48E-06  2.62E-04  5.47E-03  0.35189
   1030.    9.709  1.05E-06  1.11E-04  1.37E-06  1.46E-04  0.00E+00  0.00E+00  2.42E-06  2.57E-04  5.48E-03  0.33744
   1032.    9.690  1.01E-06  1.07E-04  1.42E-06  1.51E-04  0.00E+00  0.00E+00  2.43E-06  2.58E-04  5.48E-03  0.35074
   1034.    9.671  1.01E-06  1.08E-04  1.37E-06  1.47E-04  0.00E+00  0.00E+00  2.38E-06  2.55E-04  5.49E-03  0.34063
   1036.    9.653  1.05E-06  1.13E-04  1.25E-06  1.34E-04  0.00E+00  0.00E+00  2.30E-06  2.46E-04  5.49E-03  0.31102
   1038.    9.634  1.10E-06  1.19E-04  1.09E-06  1.18E-04  0.00E+00  0.00E+00  2.20E-06  2.37E-04  5.50E-03  0.27424
   1040.    9.615  1.11E-06  1.20E-04  1.05E-06  1.13E-04  0.00E+00  0.00E+00  2.16E-06  2.33E-04  5.50E-03  0.26435
   1042.    9.597  7.96E-07  8.64E-05  1.91E-06  2.08E-04  0.00E+00  0.00E+00  2.71E-06  2.94E-04  5.51E-03  0.48609
   1044.    9.579  5.79E-07  6.31E-05  2.50E-06  2.72E-04  0.00E+00  0.00E+00  3.08E-06  3.35E-04  5.51E-03  0.63720
   1046.    9.560  8.33E-07  9.11E-05  1.75E-06  1.91E-04  0.00E+00  0.00E+00  2.58E-06  2.82E-04  5.52E-03  0.44732
   1048.    9.542  1.06E-06  1.16E-04  1.14E-06  1.26E-04  0.00E+00  0.00E+00  2.20E-06  2.41E-04  5.52E-03  0.29455
   1050.    9.524  1.14E-06  1.26E-04  9.28E-07  1.02E-04  0.00E+00  0.00E+00  2.07E-06  2.28E-04  5.53E-03  0.24044
   1052.    9.506  1.15E-06  1.27E-04  8.48E-07  9.38E-05  0.00E+00  0.00E+00  2.00E-06  2.21E-04  5.53E-03  0.22093
   1054.    9.488  1.16E-06  1.29E-04  7.98E-07  8.86E-05  0.00E+00  0.00E+00  1.96E-06  2.17E-04  5.54E-03  0.20910
   1056.    9.470  1.15E-06  1.29E-04  8.07E-07  9.00E-05  0.00E+00  0.00E+00  1.96E-06  2.19E-04  5.54E-03  0.21278
   1058.    9.452  1.07E-06  1.20E-04  1.01E-06  1.13E-04  0.00E+00  0.00E+00  2.08E-06  2.33E-04  5.54E-03  0.26839
   1060.    9.434  9.64E-07  1.08E-04  1.27E-06  1.43E-04  0.00E+00  0.00E+00  2.24E-06  2.51E-04  5.55E-03  0.33971
   1062.    9.416  8.42E-07  9.49E-05  1.57E-06  1.77E-04  0.00E+00  0.00E+00  2.41E-06  2.72E-04  5.55E-03  0.42050
   1064.    9.398  6.88E-07  7.78E-05  2.03E-06  2.29E-04  0.00E+00  0.00E+00  2.71E-06  3.07E-04  5.56E-03  0.54630
   1066.    9.381  6.05E-07  6.88E-05  2.44E-06  2.77E-04  0.00E+00  0.00E+00  3.04E-06  3.46E-04  5.56E-03  0.66026
   1068.    9.363  4.51E-07  5.14E-05  2.81E-06  3.20E-04  0.00E+00  0.00E+00  3.26E-06  3.71E-04  5.57E-03  0.76468
   1070.    9.346  3.40E-07  3.90E-05  3.07E-06  3.52E-04  0.00E+00  0.00E+00  3.41E-06  3.91E-04  5.58E-03  0.84160
   1072.    9.328  3.35E-07  3.84E-05  3.15E-06  3.62E-04  0.00E+00  0.00E+00  3.49E-06  4.01E-04  5.58E-03  0.86827
   1074.    9.311  4.16E-07  4.79E-05  3.04E-06  3.51E-04  0.00E+00  0.00E+00  3.46E-06  3.99E-04  5.59E-03  0.84261
   1076.    9.294  3.86E-07  4.47E-05  3.04E-06  3.52E-04  0.00E+00  0.00E+00  3.43E-06  3.97E-04  5.60E-03  0.84814
   1078.    9.276  2.98E-07  3.47E-05  3.15E-06  3.66E-04  0.00E+00  0.00E+00  3.45E-06  4.00E-04  5.61E-03  0.88172
   1080.    9.259  3.38E-07  3.94E-05  3.06E-06  3.57E-04  0.00E+00  0.00E+00  3.40E-06  3.96E-04  5.61E-03  0.86138
   1082.    9.242  3.05E-07  3.57E-05  3.08E-06  3.61E-04  0.00E+00  0.00E+00  3.38E-06  3.96E-04  5.62E-03  0.87266
   1084.    9.225  2.27E-07  2.67E-05  3.18E-06  3.74E-04  0.00E+00  0.00E+00  3.41E-06  4.00E-04  5.63E-03  0.90596
   1086.    9.208  2.25E-07  2.66E-05  3.15E-06  3.72E-04  0.00E+00  0.00E+00  3.38E-06  3.98E-04  5.63E-03  0.90299
   1088.    9.191  1.86E-07  2.21E-05  3.17E-06  3.75E-04  0.00E+00  0.00E+00  3.36E-06  3.97E-04  5.64E-03  0.91357
   1090.    9.174  2.03E-07  2.42E-05  3.15E-06  3.74E-04  0.00E+00  0.00E+00  3.35E-06  3.99E-04  5.65E-03  0.91336
   1092.    9.158  1.78E-07  2.12E-05  3.17E-06  3.78E-04  0.00E+00  0.00E+00  3.35E-06  3.99E-04  5.65E-03  0.92337
   1094.    9.141  9.89E-08  1.18E-05  3.22E-06  3.86E-04  0.00E+00  0.00E+00  3.32E-06  3.98E-04  5.66E-03  0.94476
   1096.    9.124  8.16E-08  9.80E-06  3.23E-06  3.88E-04  0.00E+00  0.00E+00  3.31E-06  3.98E-04  5.67E-03  0.95335
   1098.    9.107  1.08E-07  1.31E-05  3.19E-06  3.84E-04  0.00E+00  0.00E+00  3.30E-06  3.97E-04  5.67E-03  0.94535
   1100.    9.091  2.43E-07  2.94E-05  3.02E-06  3.66E-04  0.00E+00  0.00E+00  3.26E-06  3.95E-04  5.68E-03  0.90102
  iv         1105
1                                             RADIANCE(WATTS/CM2-STER-XXX)
0  FREQ   WAVLEN    PATH THERMAL      SURFACE EMISSION    SURFACE REFLECTED     TOTAL RADIANCE   INTEGRAL    TOTAL
  (CM-1) (MICRN)    (CM-1)   (MICRN)    (CM-1)   (MICRN)    (CM-1)   (MICRN)    (CM-1)   (MICRN)    (CM-1)   TRANS

   1102.    9.074  1.93E-07  2.35E-05  3.06E-06  3.71E-04  0.00E+00  0.00E+00  3.25E-06  3.95E-04  5.69E-03  0.91716
   1104.    9.058  8.21E-08  1.00E-05  3.16E-06  3.86E-04  0.00E+00  0.00E+00  3.25E-06  3.96E-04  5.69E-03  0.95471
   1106.    9.042  1.99E-07  2.44E-05  3.03E-06  3.70E-04  0.00E+00  0.00E+00  3.23E-06  3.95E-04  5.70E-03  0.91858
   1108.    9.025  1.91E-07  2.34E-05  3.02E-06  3.71E-04  0.00E+00  0.00E+00  3.21E-06  3.94E-04  5.70E-03  0.92164
   1110.    9.009  1.38E-07  1.70E-05  3.05E-06  3.76E-04  0.00E+00  0.00E+00  3.19E-06  3.93E-04  5.71E-03  0.93619
   1112.    8.993  2.51E-07  3.10E-05  2.90E-06  3.59E-04  0.00E+00  0.00E+00  3.15E-06  3.90E-04  5.72E-03  0.89627
   1114.    8.977  1.27E-07  1.58E-05  3.01E-06  3.74E-04  0.00E+00  0.00E+00  3.14E-06  3.90E-04  5.72E-03  0.93530
   1116.    8.961  7.24E-08  9.02E-06  3.05E-06  3.80E-04  0.00E+00  0.00E+00  3.12E-06  3.89E-04  5.73E-03  0.95186
   1118.    8.945  8.84E-08  1.11E-05  3.00E-06  3.75E-04  0.00E+00  0.00E+00  3.09E-06  3.86E-04  5.74E-03  0.94173
   1120.    8.929  2.47E-07  3.10E-05  2.81E-06  3.52E-04  0.00E+00  0.00E+00  3.06E-06  3.83E-04  5.74E-03  0.88780
   1122.    8.913  2.51E-07  3.16E-05  2.78E-06  3.50E-04  0.00E+00  0.00E+00  3.03E-06  3.82E-04  5.75E-03  0.88475
   1124.    8.897  8.61E-08  1.09E-05  2.93E-06  3.70E-04  0.00E+00  0.00E+00  3.02E-06  3.81E-04  5.75E-03  0.93713
   1126.    8.881  7.35E-08  9.32E-06  2.93E-06  3.72E-04  0.00E+00  0.00E+00  3.00E-06  3.81E-04  5.76E-03  0.94249
   1128.    8.865  6.66E-08  8.47E-06  2.93E-06  3.73E-04  0.00E+00  0.00E+00  3.00E-06  3.81E-04  5.77E-03  0.94820
   1130.    8.850  6.73E-08  8.59E-06  2.92E-06  3.73E-04  0.00E+00  0.00E+00  2.98E-06  3.81E-04  5.77E-03  0.94937
   1132.    8.834  7.04E-08  9.02E-06  2.91E-06  3.73E-04  0.00E+00  0.00E+00  2.98E-06  3.82E-04  5.78E-03  0.95154
   1134.    8.818  2.59E-07  3.33E-05  2.69E-06  3.46E-04  0.00E+00  0.00E+00  2.95E-06  3.79E-04  5.78E-03  0.88511
   1136.    8.803  6.35E-07  8.20E-05  2.26E-06  2.92E-04  0.00E+00  0.00E+00  2.89E-06  3.73E-04  5.79E-03  0.74807
   1138.    8.787  3.34E-07  4.33E-05  2.58E-06  3.35E-04  0.00E+00  0.00E+00  2.92E-06  3.78E-04  5.80E-03  0.86097
   1140.    8.772  6.04E-08  7.85E-06  2.88E-06  3.74E-04  0.00E+00  0.00E+00  2.94E-06  3.82E-04  5.80E-03  0.96415
   1142.    8.757  4.97E-08  6.48E-06  2.87E-06  3.74E-04  0.00E+00  0.00E+00  2.92E-06  3.81E-04  5.81E-03  0.96753
   1144.    8.741  4.61E-08  6.04E-06  2.85E-06  3.74E-04  0.00E+00  0.00E+00  2.90E-06  3.80E-04  5.81E-03  0.96813
   1146.    8.726  4.70E-08  6.17E-06  2.84E-06  3.73E-04  0.00E+00  0.00E+00  2.89E-06  3.79E-04  5.82E-03  0.96847
   1148.    8.711  1.75E-07  2.31E-05  2.68E-06  3.54E-04  0.00E+00  0.00E+00  2.86E-06  3.77E-04  5.82E-03  0.92101
   1150.    8.696  2.52E-07  3.33E-05  2.59E-06  3.42E-04  0.00E+00  0.00E+00  2.84E-06  3.76E-04  5.83E-03  0.89396
   1152.    8.681  2.53E-07  3.36E-05  2.58E-06  3.42E-04  0.00E+00  0.00E+00  2.83E-06  3.76E-04  5.84E-03  0.89525
   1154.    8.666  1.20E-07  1.60E-05  2.70E-06  3.60E-04  0.00E+00  0.00E+00  2.82E-06  3.76E-04  5.84E-03  0.94434
   1156.    8.651  4.71E-08  6.29E-06  2.76E-06  3.69E-04  0.00E+00  0.00E+00  2.81E-06  3.75E-04  5.85E-03  0.97000
   1158.    8.636  4.41E-08  5.91E-06  2.75E-06  3.68E-04  0.00E+00  0.00E+00  2.79E-06  3.74E-04  5.85E-03  0.97139
   1160.    8.621  5.00E-08  6.72E-06  2.72E-06  3.67E-04  0.00E+00  0.00E+00  2.77E-06  3.73E-04  5.86E-03  0.96906
   1162.    8.606  5.46E-08  7.38E-06  2.71E-06  3.65E-04  0.00E+00  0.00E+00  2.76E-06  3.73E-04  5.86E-03  0.96857
   1164.    8.591  2.55E-07  3.45E-05  2.48E-06  3.36E-04  0.00E+00  0.00E+00  2.73E-06  3.70E-04  5.87E-03  0.89184
   1166.    8.576  3.17E-07  4.31E-05  2.40E-06  3.26E-04  0.00E+00  0.00E+00  2.71E-06  3.69E-04  5.87E-03  0.86836
   1168.    8.562  8.43E-08  1.15E-05  2.63E-06  3.59E-04  0.00E+00  0.00E+00  2.72E-06  3.71E-04  5.88E-03  0.95966
   1170.    8.547  5.63E-08  7.71E-06  2.65E-06  3.62E-04  0.00E+00  0.00E+00  2.70E-06  3.70E-04  5.89E-03  0.97076
   1172.    8.532  1.55E-07  2.14E-05  2.53E-06  3.47E-04  0.00E+00  0.00E+00  2.68E-06  3.69E-04  5.89E-03  0.93254
   1174.    8.518  6.03E-07  8.31E-05  2.01E-06  2.77E-04  0.00E+00  0.00E+00  2.62E-06  3.60E-04  5.90E-03  0.74659
   1176.    8.503  4.56E-07  6.31E-05  2.15E-06  2.98E-04  0.00E+00  0.00E+00  2.61E-06  3.61E-04  5.90E-03  0.80382
   1178.    8.489  7.51E-08  1.04E-05  2.57E-06  3.57E-04  0.00E+00  0.00E+00  2.65E-06  3.67E-04  5.91E-03  0.96547
   1180.    8.475  7.20E-08  1.00E-05  2.56E-06  3.56E-04  0.00E+00  0.00E+00  2.63E-06  3.66E-04  5.91E-03  0.96655
   1182.    8.460  6.23E-08  8.70E-06  2.55E-06  3.57E-04  0.00E+00  0.00E+00  2.62E-06  3.66E-04  5.92E-03  0.97108
   1184.    8.446  6.29E-08  8.81E-06  2.54E-06  3.56E-04  0.00E+00  0.00E+00  2.60E-06  3.65E-04  5.92E-03  0.97137
   1186.    8.432  3.97E-07  5.58E-05  2.15E-06  3.02E-04  0.00E+00  0.00E+00  2.54E-06  3.58E-04  5.93E-03  0.82573
   1188.    8.418  4.64E-07  6.55E-05  2.06E-06  2.91E-04  0.00E+00  0.00E+00  2.53E-06  3.57E-04  5.93E-03  0.79934
   1190.    8.403  1.30E-07  1.85E-05  2.42E-06  3.43E-04  0.00E+00  0.00E+00  2.55E-06  3.61E-04  5.94E-03  0.94329
   1192.    8.389  8.40E-08  1.19E-05  2.45E-06  3.48E-04  0.00E+00  0.00E+00  2.54E-06  3.60E-04  5.94E-03  0.96140
   1194.    8.375  6.71E-08  9.57E-06  2.46E-06  3.50E-04  0.00E+00  0.00E+00  2.53E-06  3.60E-04  5.95E-03  0.96968
   1196.    8.361  1.76E-07  2.52E-05  2.32E-06  3.32E-04  0.00E+00  0.00E+00  2.50E-06  3.57E-04  5.95E-03  0.92094
   1198.    8.347  4.38E-07  6.29E-05  2.01E-06  2.89E-04  0.00E+00  0.00E+00  2.45E-06  3.52E-04  5.96E-03  0.80368
   1200.    8.333  2.24E-07  3.22E-05  2.24E-06  3.22E-04  0.00E+00  0.00E+00  2.46E-06  3.54E-04  5.96E-03  0.89968
  iv         1205
1                                             RADIANCE(WATTS/CM2-STER-XXX)
0  FREQ   WAVLEN    PATH THERMAL      SURFACE EMISSION    SURFACE REFLECTED     TOTAL RADIANCE   INTEGRAL    TOTAL
  (CM-1) (MICRN)    (CM-1)   (MICRN)    (CM-1)   (MICRN)    (CM-1)   (MICRN)    (CM-1)   (MICRN)    (CM-1)   TRANS

   1202.    8.319  6.27E-08  9.06E-06  2.40E-06  3.46E-04  0.00E+00  0.00E+00  2.46E-06  3.55E-04  5.97E-03  0.96887
   1204.    8.306  6.47E-08  9.38E-06  2.38E-06  3.45E-04  0.00E+00  0.00E+00  2.45E-06  3.55E-04  5.97E-03  0.96894
   1206.    8.292  9.14E-08  1.33E-05  2.34E-06  3.41E-04  0.00E+00  0.00E+00  2.43E-06  3.54E-04  5.98E-03  0.95892
   1208.    8.278  9.05E-08  1.32E-05  2.33E-06  3.40E-04  0.00E+00  0.00E+00  2.42E-06  3.53E-04  5.98E-03  0.95851
   1210.    8.264  4.12E-07  6.03E-05  1.94E-06  2.84E-04  0.00E+00  0.00E+00  2.35E-06  3.44E-04  5.99E-03  0.80196
   1212.    8.251  7.59E-07  1.11E-04  1.53E-06  2.25E-04  0.00E+00  0.00E+00  2.29E-06  3.36E-04  5.99E-03  0.63772
   1214.    8.237  3.55E-07  5.24E-05  1.99E-06  2.93E-04  0.00E+00  0.00E+00  2.34E-06  3.45E-04  6.00E-03  0.83522
   1216.    8.224  1.69E-07  2.50E-05  2.17E-06  3.21E-04  0.00E+00  0.00E+00  2.34E-06  3.46E-04  6.00E-03  0.91702
   1218.    8.210  3.98E-07  5.91E-05  1.89E-06  2.81E-04  0.00E+00  0.00E+00  2.29E-06  3.40E-04  6.01E-03  0.80327
   1220.    8.197  4.68E-07  6.96E-05  1.78E-06  2.65E-04  0.00E+00  0.00E+00  2.25E-06  3.35E-04  6.01E-03  0.76160
   1222.    8.183  3.02E-07  4.51E-05  1.95E-06  2.92E-04  0.00E+00  0.00E+00  2.26E-06  3.37E-04  6.01E-03  0.84089
   1224.    8.170  5.80E-07  8.69E-05  1.63E-06  2.44E-04  0.00E+00  0.00E+00  2.21E-06  3.31E-04  6.02E-03  0.70437
   1226.    8.157  6.48E-07  9.74E-05  1.55E-06  2.33E-04  0.00E+00  0.00E+00  2.20E-06  3.31E-04  6.02E-03  0.67673
   1228.    8.143  2.89E-07  4.36E-05  1.92E-06  2.90E-04  0.00E+00  0.00E+00  2.21E-06  3.33E-04  6.03E-03  0.84210
   1230.    8.130  2.43E-07  3.67E-05  1.93E-06  2.92E-04  0.00E+00  0.00E+00  2.18E-06  3.29E-04  6.03E-03  0.85293
   1232.    8.117  1.19E-07  1.81E-05  2.09E-06  3.18E-04  0.00E+00  0.00E+00  2.21E-06  3.36E-04  6.04E-03  0.92945
   1234.    8.104  1.41E-07  2.15E-05  2.05E-06  3.12E-04  0.00E+00  0.00E+00  2.19E-06  3.33E-04  6.04E-03  0.91467
   1236.    8.091  3.62E-07  5.53E-05  1.72E-06  2.63E-04  0.00E+00  0.00E+00  2.08E-06  3.18E-04  6.05E-03  0.77364
   1238.    8.078  4.31E-07  6.60E-05  1.64E-06  2.51E-04  0.00E+00  0.00E+00  2.07E-06  3.17E-04  6.05E-03  0.74090
   1240.    8.065  3.72E-07  5.73E-05  1.71E-06  2.63E-04  0.00E+00  0.00E+00  2.08E-06  3.20E-04  6.05E-03  0.77827
   1242.    8.052  5.46E-07  8.42E-05  1.46E-06  2.24E-04  0.00E+00  0.00E+00  2.00E-06  3.09E-04  6.06E-03  0.66645
   1244.    8.039  8.68E-07  1.34E-04  1.05E-06  1.62E-04  0.00E+00  0.00E+00  1.92E-06  2.96E-04  6.06E-03  0.48304
   1246.    8.026  6.78E-07  1.05E-04  1.22E-06  1.89E-04  0.00E+00  0.00E+00  1.90E-06  2.94E-04  6.06E-03  0.56563
   1248.    8.013  4.85E-07  7.56E-05  1.41E-06  2.19E-04  0.00E+00  0.00E+00  1.89E-06  2.95E-04  6.07E-03  0.65719
   1250.    8.000  4.24E-07  6.62E-05  1.53E-06  2.40E-04  0.00E+00  0.00E+00  1.96E-06  3.06E-04  6.07E-03  0.72148
   1252.    7.987  4.85E-07  7.61E-05  1.46E-06  2.29E-04  0.00E+00  0.00E+00  1.95E-06  3.05E-04  6.08E-03  0.69111
   1254.    7.974  5.64E-07  8.88E-05  1.27E-06  1.99E-04  0.00E+00  0.00E+00  1.83E-06  2.88E-04  6.08E-03  0.60300
   1256.    7.962  4.21E-07  6.64E-05  1.50E-06  2.36E-04  0.00E+00  0.00E+00  1.92E-06  3.02E-04  6.08E-03  0.71705
   1258.    7.949  5.84E-07  9.24E-05  1.31E-06  2.08E-04  0.00E+00  0.00E+00  1.90E-06  3.00E-04  6.09E-03  0.63240
   1260.    7.937  1.01E-06  1.60E-04  6.28E-07  9.97E-05  0.00E+00  0.00E+00  1.63E-06  2.59E-04  6.09E-03  0.30427
   1262.    7.924  8.86E-07  1.41E-04  7.50E-07  1.19E-04  0.00E+00  0.00E+00  1.64E-06  2.61E-04  6.09E-03  0.36716
   1264.    7.911  7.69E-07  1.23E-04  9.87E-07  1.58E-04  0.00E+00  0.00E+00  1.76E-06  2.81E-04  6.10E-03  0.48519
   1266.    7.899  9.69E-07  1.55E-04  7.45E-07  1.19E-04  0.00E+00  0.00E+00  1.71E-06  2.75E-04  6.10E-03  0.36833
   1268.    7.886  1.11E-06  1.79E-04  4.54E-07  7.31E-05  0.00E+00  0.00E+00  1.57E-06  2.52E-04  6.10E-03  0.22606
   1270.    7.874  1.21E-06  1.96E-04  2.82E-07  4.54E-05  0.00E+00  0.00E+00  1.50E-06  2.41E-04  6.11E-03  0.14110
   1272.    7.862  1.03E-06  1.67E-04  5.24E-07  8.49E-05  0.00E+00  0.00E+00  1.56E-06  2.52E-04  6.11E-03  0.26533
   1274.    7.849  6.60E-07  1.07E-04  1.07E-06  1.73E-04  0.00E+00  0.00E+00  1.73E-06  2.80E-04  6.11E-03  0.54200
   1276.    7.837  5.16E-07  8.39E-05  1.15E-06  1.88E-04  0.00E+00  0.00E+00  1.67E-06  2.72E-04  6.12E-03  0.58917
   1278.    7.825  4.13E-07  6.75E-05  1.36E-06  2.22E-04  0.00E+00  0.00E+00  1.77E-06  2.90E-04  6.12E-03  0.70004
   1280.    7.813  6.05E-07  9.92E-05  1.20E-06  1.97E-04  0.00E+00  0.00E+00  1.81E-06  2.96E-04  6.12E-03  0.62136
   1282.    7.800  7.60E-07  1.25E-04  8.01E-07  1.32E-04  0.00E+00  0.00E+00  1.56E-06  2.57E-04  6.13E-03  0.41698
   1284.    7.788  7.24E-07  1.19E-04  8.89E-07  1.47E-04  0.00E+00  0.00E+00  1.61E-06  2.66E-04  6.13E-03  0.46675
   1286.    7.776  7.90E-07  1.31E-04  8.81E-07  1.46E-04  0.00E+00  0.00E+00  1.67E-06  2.76E-04  6.13E-03  0.46445
   1288.    7.764  9.79E-07  1.62E-04  4.46E-07  7.40E-05  0.00E+00  0.00E+00  1.42E-06  2.36E-04  6.14E-03  0.23696
   1290.    7.752  7.91E-07  1.32E-04  8.11E-07  1.35E-04  0.00E+00  0.00E+00  1.60E-06  2.67E-04  6.14E-03  0.43423
   1292.    7.740  6.27E-07  1.05E-04  1.04E-06  1.73E-04  0.00E+00  0.00E+00  1.66E-06  2.78E-04  6.14E-03  0.55887
   1294.    7.728  6.96E-07  1.16E-04  7.88E-07  1.32E-04  0.00E+00  0.00E+00  1.48E-06  2.49E-04  6.15E-03  0.42676
   1296.    7.716  9.00E-07  1.51E-04  5.20E-07  8.74E-05  0.00E+00  0.00E+00  1.42E-06  2.38E-04  6.15E-03  0.28359
   1298.    7.704  7.75E-07  1.31E-04  6.16E-07  1.04E-04  0.00E+00  0.00E+00  1.39E-06  2.34E-04  6.15E-03  0.33830
   1300.    7.692  6.68E-07  1.13E-04  6.49E-07  1.10E-04  0.00E+00  0.00E+00  1.32E-06  2.23E-04  6.15E-03  0.35844
  iv         1305
1                                             RADIANCE(WATTS/CM2-STER-XXX)
0  FREQ   WAVLEN    PATH THERMAL      SURFACE EMISSION    SURFACE REFLECTED     TOTAL RADIANCE   INTEGRAL    TOTAL
  (CM-1) (MICRN)    (CM-1)   (MICRN)    (CM-1)   (MICRN)    (CM-1)   (MICRN)    (CM-1)   (MICRN)    (CM-1)   TRANS

   1302.    7.680  7.57E-07  1.28E-04  3.15E-07  5.34E-05  0.00E+00  0.00E+00  1.07E-06  1.82E-04  6.16E-03  0.17499
   1304.    7.669  7.03E-07  1.20E-04  9.15E-08  1.56E-05  0.00E+00  0.00E+00  7.94E-07  1.35E-04  6.16E-03  0.05108
   1306.    7.657  7.30E-07  1.25E-04  1.82E-07  3.11E-05  0.00E+00  0.00E+00  9.12E-07  1.56E-04  6.16E-03  0.10298
   1308.    7.645  9.29E-07  1.59E-04  5.03E-07  8.61E-05  0.00E+00  0.00E+00  1.43E-06  2.45E-04  6.16E-03  0.28614
   1310.    7.634  8.56E-07  1.47E-04  7.16E-07  1.23E-04  0.00E+00  0.00E+00  1.57E-06  2.70E-04  6.17E-03  0.40909
   1312.    7.622  1.06E-06  1.82E-04  3.40E-07  5.86E-05  0.00E+00  0.00E+00  1.40E-06  2.41E-04  6.17E-03  0.19491
   1314.    7.610  1.25E-06  2.16E-04  1.07E-07  1.85E-05  0.00E+00  0.00E+00  1.36E-06  2.35E-04  6.17E-03  0.06218
   1316.    7.599  1.26E-06  2.18E-04  1.01E-07  1.75E-05  0.00E+00  0.00E+00  1.36E-06  2.36E-04  6.17E-03  0.05887
   1318.    7.587  1.19E-06  2.07E-04  3.42E-08  5.94E-06  0.00E+00  0.00E+00  1.23E-06  2.13E-04  6.18E-03  0.02001
   1320.    7.576  1.15E-06  2.00E-04  8.23E-08  1.43E-05  0.00E+00  0.00E+00  1.23E-06  2.14E-04  6.18E-03  0.04873
   1322.    7.564  1.00E-06  1.75E-04  3.31E-07  5.79E-05  0.00E+00  0.00E+00  1.33E-06  2.33E-04  6.18E-03  0.19740
   1324.    7.553  7.51E-07  1.32E-04  7.58E-07  1.33E-04  0.00E+00  0.00E+00  1.51E-06  2.65E-04  6.19E-03  0.45392
   1326.    7.541  6.77E-07  1.19E-04  7.34E-07  1.29E-04  0.00E+00  0.00E+00  1.41E-06  2.48E-04  6.19E-03  0.44129
   1328.    7.530  8.19E-07  1.44E-04  5.34E-07  9.42E-05  0.00E+00  0.00E+00  1.35E-06  2.39E-04  6.19E-03  0.32377
   1330.    7.519  8.04E-07  1.42E-04  6.50E-07  1.15E-04  0.00E+00  0.00E+00  1.45E-06  2.57E-04  6.19E-03  0.39691
   1332.    7.508  7.39E-07  1.31E-04  4.88E-07  8.65E-05  0.00E+00  0.00E+00  1.23E-06  2.18E-04  6.20E-03  0.29932
   1334.    7.496  8.67E-07  1.54E-04  4.41E-07  7.85E-05  0.00E+00  0.00E+00  1.31E-06  2.33E-04  6.20E-03  0.27278
   1336.    7.485  9.83E-07  1.75E-04  2.47E-07  4.41E-05  0.00E+00  0.00E+00  1.23E-06  2.20E-04  6.20E-03  0.15313
   1338.    7.474  8.66E-07  1.55E-04  1.01E-08  1.80E-06  0.00E+00  0.00E+00  8.76E-07  1.57E-04  6.20E-03  0.00626
   1340.    7.463  8.59E-07  1.54E-04  6.33E-09  1.14E-06  0.00E+00  0.00E+00  8.65E-07  1.55E-04  6.20E-03  0.00402
   1342.    7.452  8.59E-07  1.55E-04  1.09E-07  1.97E-05  0.00E+00  0.00E+00  9.68E-07  1.74E-04  6.21E-03  0.06965
   1344.    7.440  8.01E-07  1.45E-04  4.37E-07  7.90E-05  0.00E+00  0.00E+00  1.24E-06  2.24E-04  6.21E-03  0.27999
   1346.    7.429  7.87E-07  1.42E-04  4.43E-07  8.03E-05  0.00E+00  0.00E+00  1.23E-06  2.23E-04  6.21E-03  0.28503
   1348.    7.418  8.80E-07  1.60E-04  1.78E-07  3.23E-05  0.00E+00  0.00E+00  1.06E-06  1.92E-04  6.21E-03  0.11507
   1350.    7.407  9.77E-07  1.78E-04  1.62E-07  2.96E-05  0.00E+00  0.00E+00  1.14E-06  2.08E-04  6.22E-03  0.10613
   1352.    7.396  9.05E-07  1.65E-04  2.67E-07  4.88E-05  0.00E+00  0.00E+00  1.17E-06  2.14E-04  6.22E-03  0.17538
   1354.    7.386  9.57E-07  1.75E-04  1.59E-07  2.91E-05  0.00E+00  0.00E+00  1.12E-06  2.05E-04  6.22E-03  0.10483
   1356.    7.375  9.23E-07  1.70E-04  1.69E-07  3.11E-05  0.00E+00  0.00E+00  1.09E-06  2.01E-04  6.22E-03  0.11297
   1358.    7.364  9.75E-07  1.80E-04  2.09E-07  3.85E-05  0.00E+00  0.00E+00  1.18E-06  2.18E-04  6.23E-03  0.13967
   1360.    7.353  9.73E-07  1.80E-04  9.87E-08  1.83E-05  0.00E+00  0.00E+00  1.07E-06  1.98E-04  6.23E-03  0.06642
   1362.    7.342  8.37E-07  1.55E-04  1.17E-08  2.17E-06  0.00E+00  0.00E+00  8.48E-07  1.57E-04  6.23E-03  0.00791
   1364.    7.331  9.00E-07  1.67E-04  4.50E-08  8.38E-06  0.00E+00  0.00E+00  9.45E-07  1.76E-04  6.23E-03  0.03097
   1366.    7.321  1.03E-06  1.92E-04  1.57E-07  2.92E-05  0.00E+00  0.00E+00  1.19E-06  2.21E-04  6.23E-03  0.10806
   1368.    7.310  9.74E-07  1.82E-04  9.79E-08  1.83E-05  0.00E+00  0.00E+00  1.07E-06  2.01E-04  6.24E-03  0.06767
   1370.    7.299  1.02E-06  1.91E-04  4.82E-08  9.04E-06  0.00E+00  0.00E+00  1.07E-06  2.00E-04  6.24E-03  0.03368
   1372.    7.289  9.77E-07  1.84E-04  3.55E-08  6.68E-06  0.00E+00  0.00E+00  1.01E-06  1.91E-04  6.24E-03  0.02484
   1374.    7.278  7.49E-07  1.41E-04  1.53E-09  2.89E-07  0.00E+00  0.00E+00  7.51E-07  1.42E-04  6.24E-03  0.00108
   1376.    7.267  8.52E-07  1.61E-04  1.41E-08  2.68E-06  0.00E+00  0.00E+00  8.66E-07  1.64E-04  6.24E-03  0.01011
   1378.    7.257  9.99E-07  1.90E-04  3.59E-08  6.82E-06  0.00E+00  0.00E+00  1.04E-06  1.97E-04  6.24E-03  0.02577
   1380.    7.246  9.84E-07  1.87E-04  1.13E-07  2.15E-05  0.00E+00  0.00E+00  1.10E-06  2.09E-04  6.25E-03  0.08164
   1382.    7.236  1.00E-06  1.91E-04  1.87E-07  3.57E-05  0.00E+00  0.00E+00  1.19E-06  2.27E-04  6.25E-03  0.13609
   1384.    7.225  1.02E-06  1.96E-04  1.29E-07  2.47E-05  0.00E+00  0.00E+00  1.15E-06  2.21E-04  6.25E-03  0.09424
   1386.    7.215  8.54E-07  1.64E-04  3.34E-08  6.42E-06  0.00E+00  0.00E+00  8.87E-07  1.70E-04  6.25E-03  0.02450
   1388.    7.205  7.64E-07  1.47E-04  2.60E-09  5.01E-07  0.00E+00  0.00E+00  7.67E-07  1.48E-04  6.25E-03  0.00194
   1390.    7.194  9.57E-07  1.85E-04  1.04E-08  2.01E-06  0.00E+00  0.00E+00  9.67E-07  1.87E-04  6.26E-03  0.00780
   1392.    7.184  9.31E-07  1.80E-04  8.41E-09  1.63E-06  0.00E+00  0.00E+00  9.40E-07  1.82E-04  6.26E-03  0.00631
   1394.    7.174  6.78E-07  1.32E-04  1.42E-09  2.76E-07  0.00E+00  0.00E+00  6.79E-07  1.32E-04  6.26E-03  0.00107
   1396.    7.163  6.70E-07  1.31E-04  1.74E-11  3.39E-09  0.00E+00  0.00E+00  6.70E-07  1.31E-04  6.26E-03  0.00001
   1398.    7.153  6.78E-07  1.33E-04  9.96E-11  1.95E-08  0.00E+00  0.00E+00  6.79E-07  1.33E-04  6.26E-03  0.00008
   1400.    7.143  7.29E-07  1.43E-04  3.19E-09  6.26E-07  0.00E+00  0.00E+00  7.33E-07  1.44E-04  6.26E-03  0.00248
  iv         1405
1                                             RADIANCE(WATTS/CM2-STER-XXX)
0  FREQ   WAVLEN    PATH THERMAL      SURFACE EMISSION    SURFACE REFLECTED     TOTAL RADIANCE   INTEGRAL    TOTAL
  (CM-1) (MICRN)    (CM-1)   (MICRN)    (CM-1)   (MICRN)    (CM-1)   (MICRN)    (CM-1)   (MICRN)    (CM-1)   TRANS

   1402.    7.133  9.31E-07  1.83E-04  1.00E-08  1.97E-06  0.00E+00  0.00E+00  9.41E-07  1.85E-04  6.27E-03  0.00783
   1404.    7.123  8.09E-07  1.59E-04  4.61E-09  9.08E-07  0.00E+00  0.00E+00  8.13E-07  1.60E-04  6.27E-03  0.00359
   1406.    7.112  8.62E-07  1.70E-04  2.53E-08  5.01E-06  0.00E+00  0.00E+00  8.88E-07  1.75E-04  6.27E-03  0.02010
   1408.    7.102  9.88E-07  1.96E-04  6.26E-08  1.24E-05  0.00E+00  0.00E+00  1.05E-06  2.08E-04  6.27E-03  0.04978
   1410.    7.092  9.26E-07  1.84E-04  3.50E-08  6.95E-06  0.00E+00  0.00E+00  9.61E-07  1.91E-04  6.27E-03  0.02790
   1412.    7.082  8.88E-07  1.77E-04  2.65E-08  5.28E-06  0.00E+00  0.00E+00  9.14E-07  1.82E-04  6.28E-03  0.02140
   1414.    7.072  9.13E-07  1.82E-04  2.78E-08  5.56E-06  0.00E+00  0.00E+00  9.40E-07  1.88E-04  6.28E-03  0.02255
   1416.    7.062  7.51E-07  1.51E-04  5.26E-09  1.05E-06  0.00E+00  0.00E+00  7.56E-07  1.52E-04  6.28E-03  0.00427
   1418.    7.052  5.37E-07  1.08E-04  2.38E-11  4.79E-09  0.00E+00  0.00E+00  5.37E-07  1.08E-04  6.28E-03  0.00002
   1420.    7.042  5.20E-07  1.05E-04  5.51E-12  1.11E-09  0.00E+00  0.00E+00  5.20E-07  1.05E-04  6.28E-03  0.00000
   1422.    7.032  6.66E-07  1.35E-04  1.66E-11  3.36E-09  0.00E+00  0.00E+00  6.66E-07  1.35E-04  6.28E-03  0.00001
   1424.    7.022  6.56E-07  1.33E-04  5.29E-10  1.07E-07  0.00E+00  0.00E+00  6.56E-07  1.33E-04  6.28E-03  0.00045
   1426.    7.013  8.01E-07  1.63E-04  3.09E-09  6.29E-07  0.00E+00  0.00E+00  8.05E-07  1.64E-04  6.29E-03  0.00262
   1428.    7.003  7.39E-07  1.51E-04  2.16E-09  4.40E-07  0.00E+00  0.00E+00  7.41E-07  1.51E-04  6.29E-03  0.00183
   1430.    6.993  6.16E-07  1.26E-04  1.45E-10  2.97E-08  0.00E+00  0.00E+00  6.17E-07  1.26E-04  6.29E-03  0.00012
   1432.    6.983  6.94E-07  1.42E-04  1.94E-10  3.97E-08  0.00E+00  0.00E+00  6.94E-07  1.42E-04  6.29E-03  0.00017
   1434.    6.974  6.50E-07  1.34E-04  8.54E-11  1.76E-08  0.00E+00  0.00E+00  6.50E-07  1.34E-04  6.29E-03  0.00007
   1436.    6.964  4.79E-07  9.89E-05  1.01E-12  2.08E-10  0.00E+00  0.00E+00  4.79E-07  9.89E-05  6.29E-03  0.00000
   1438.    6.954  5.66E-07  1.17E-04  2.17E-10  4.50E-08  0.00E+00  0.00E+00  5.67E-07  1.17E-04  6.29E-03  0.00019
   1440.    6.944  7.94E-07  1.65E-04  3.24E-09  6.72E-07  0.00E+00  0.00E+00  7.97E-07  1.65E-04  6.29E-03  0.00289
   1442.    6.935  8.56E-07  1.78E-04  9.98E-09  2.08E-06  0.00E+00  0.00E+00  8.66E-07  1.80E-04  6.30E-03  0.00895
   1444.    6.925  8.28E-07  1.73E-04  9.63E-09  2.01E-06  0.00E+00  0.00E+00  8.37E-07  1.75E-04  6.30E-03  0.00866
   1446.    6.916  6.59E-07  1.38E-04  2.26E-09  4.73E-07  0.00E+00  0.00E+00  6.61E-07  1.38E-04  6.30E-03  0.00204
   1448.    6.906  5.64E-07  1.18E-04  7.83E-11  1.64E-08  0.00E+00  0.00E+00  5.65E-07  1.18E-04  6.30E-03  0.00007
   1450.    6.897  6.71E-07  1.41E-04  2.00E-10  4.21E-08  0.00E+00  0.00E+00  6.71E-07  1.41E-04  6.30E-03  0.00018
   1452.    6.887  6.31E-07  1.33E-04  8.97E-11  1.89E-08  0.00E+00  0.00E+00  6.31E-07  1.33E-04  6.30E-03  0.00008
   1454.    6.878  5.26E-07  1.11E-04  3.55E-13  7.51E-11  0.00E+00  0.00E+00  5.26E-07  1.11E-04  6.30E-03  0.00000
   1456.    6.868  3.58E-07  7.58E-05  4.81E-16  1.02E-13  0.00E+00  0.00E+00  3.58E-07  7.58E-05  6.30E-03  0.00000
   1458.    6.859  3.27E-07  6.94E-05  3.44E-23  7.31E-21  0.00E+00  0.00E+00  3.27E-07  6.94E-05  6.31E-03  0.00000
   1460.    6.849  4.84E-07  1.03E-04  3.44E-13  7.32E-11  0.00E+00  0.00E+00  4.84E-07  1.03E-04  6.31E-03  0.00000
   1462.    6.840  5.81E-07  1.24E-04  8.80E-13  1.88E-10  0.00E+00  0.00E+00  5.81E-07  1.24E-04  6.31E-03  0.00000
   1464.    6.831  4.46E-07  9.56E-05  1.37E-12  2.93E-10  0.00E+00  0.00E+00  4.46E-07  9.56E-05  6.31E-03  0.00000
   1466.    6.821  4.76E-07  1.02E-04  2.29E-12  4.92E-10  0.00E+00  0.00E+00  4.76E-07  1.02E-04  6.31E-03  0.00000
   1468.    6.812  6.04E-07  1.30E-04  6.22E-12  1.34E-09  0.00E+00  0.00E+00  6.04E-07  1.30E-04  6.31E-03  0.00001
   1470.    6.803  5.31E-07  1.15E-04  3.98E-12  8.59E-10  0.00E+00  0.00E+00  5.31E-07  1.15E-04  6.31E-03  0.00000
   1472.    6.793  3.56E-07  7.72E-05  8.33E-15  1.80E-12  0.00E+00  0.00E+00  3.56E-07  7.72E-05  6.31E-03  0.00000
   1474.    6.784  3.40E-07  7.40E-05  1.48E-17  3.21E-15  0.00E+00  0.00E+00  3.40E-07  7.40E-05  6.31E-03  0.00000
   1476.    6.775  4.11E-07  8.96E-05  8.04E-13  1.75E-10  0.00E+00  0.00E+00  4.11E-07  8.96E-05  6.31E-03  0.00000
   1478.    6.766  5.63E-07  1.23E-04  4.45E-11  9.72E-09  0.00E+00  0.00E+00  5.63E-07  1.23E-04  6.31E-03  0.00005
   1480.    6.757  5.88E-07  1.29E-04  5.48E-11  1.20E-08  0.00E+00  0.00E+00  5.88E-07  1.29E-04  6.32E-03  0.00006
   1482.    6.748  5.63E-07  1.24E-04  6.07E-11  1.33E-08  0.00E+00  0.00E+00  5.63E-07  1.24E-04  6.32E-03  0.00006
   1484.    6.739  5.95E-07  1.31E-04  7.42E-11  1.63E-08  0.00E+00  0.00E+00  5.95E-07  1.31E-04  6.32E-03  0.00008
   1486.    6.729  4.58E-07  1.01E-04  1.07E-11  2.35E-09  0.00E+00  0.00E+00  4.58E-07  1.01E-04  6.32E-03  0.00001
   1488.    6.720  3.47E-07  7.67E-05  1.16E-14  2.57E-12  0.00E+00  0.00E+00  3.47E-07  7.67E-05  6.32E-03  0.00000
   1490.    6.711  3.33E-07  7.38E-05  1.42E-17  3.15E-15  0.00E+00  0.00E+00  3.33E-07  7.38E-05  6.32E-03  0.00000
   1492.    6.702  4.35E-07  9.69E-05  1.69E-14  3.76E-12  0.00E+00  0.00E+00  4.35E-07  9.69E-05  6.32E-03  0.00000
   1494.    6.693  4.65E-07  1.04E-04  2.03E-14  4.54E-12  0.00E+00  0.00E+00  4.65E-07  1.04E-04  6.32E-03  0.00000
   1496.    6.684  3.37E-07  7.53E-05  5.14E-15  1.15E-12  0.00E+00  0.00E+00  3.37E-07  7.53E-05  6.32E-03  0.00000
   1498.    6.676  3.01E-07  6.75E-05  1.37E-15  3.07E-13  0.00E+00  0.00E+00  3.01E-07  6.75E-05  6.32E-03  0.00000
   1500.    6.667  3.62E-07  8.15E-05  6.04E-18  1.36E-15  0.00E+00  0.00E+00  3.62E-07  8.15E-05  6.32E-03  0.00000
  iv         1505
1                                             RADIANCE(WATTS/CM2-STER-XXX)
0  FREQ   WAVLEN    PATH THERMAL      SURFACE EMISSION    SURFACE REFLECTED     TOTAL RADIANCE   INTEGRAL    TOTAL
  (CM-1) (MICRN)    (CM-1)   (MICRN)    (CM-1)   (MICRN)    (CM-1)   (MICRN)    (CM-1)   (MICRN)    (CM-1)   TRANS

   1502.    6.658  4.11E-07  9.28E-05  1.07E-17  2.41E-15  0.00E+00  0.00E+00  4.11E-07  9.28E-05  6.33E-03  0.00000
   1504.    6.649  3.50E-07  7.92E-05  4.50E-18  1.02E-15  0.00E+00  0.00E+00  3.50E-07  7.92E-05  6.33E-03  0.00000
   1506.    6.640  2.41E-07  5.47E-05  3.09E-27  7.00E-25  0.00E+00  0.00E+00  2.41E-07  5.47E-05  6.33E-03  0.00000
   1508.    6.631  2.38E-07  5.42E-05  7.06E-30  1.61E-27  0.00E+00  0.00E+00  2.38E-07  5.42E-05  6.33E-03  0.00000
   1510.    6.623  2.91E-07  6.64E-05  6.95E-20  1.58E-17  0.00E+00  0.00E+00  2.91E-07  6.64E-05  6.33E-03  0.00000
   1512.    6.614  3.39E-07  7.74E-05  2.09E-19  4.78E-17  0.00E+00  0.00E+00  3.39E-07  7.74E-05  6.33E-03  0.00000
   1514.    6.605  3.59E-07  8.23E-05  7.53E-20  1.73E-17  0.00E+00  0.00E+00  3.59E-07  8.23E-05  6.33E-03  0.00000
   1516.    6.596  2.91E-07  6.68E-05  3.77E-21  8.66E-19  0.00E+00  0.00E+00  2.91E-07  6.68E-05  6.33E-03  0.00000
   1518.    6.588  2.77E-07  6.38E-05  8.62E-27  1.99E-24  0.00E+00  0.00E+00  2.77E-07  6.38E-05  6.33E-03  0.00000
   1520.    6.579  2.58E-07  5.96E-05  3.41E-27  7.89E-25  0.00E+00  0.00E+00  2.58E-07  5.96E-05  6.33E-03  0.00000
   1522.    6.570  2.30E-07  5.32E-05  7.99E-28  1.85E-25  0.00E+00  0.00E+00  2.30E-07  5.32E-05  6.33E-03  0.00000
   1524.    6.562  2.60E-07  6.03E-05  5.29E-21  1.23E-18  0.00E+00  0.00E+00  2.60E-07  6.03E-05  6.33E-03  0.00000
   1526.    6.553  2.85E-07  6.65E-05  1.18E-20  2.75E-18  0.00E+00  0.00E+00  2.85E-07  6.65E-05  6.33E-03  0.00000
   1528.    6.545  3.15E-07  7.36E-05  9.04E-18  2.11E-15  0.00E+00  0.00E+00  3.15E-07  7.36E-05  6.33E-03  0.00000
   1530.    6.536  3.55E-07  8.31E-05  2.25E-17  5.26E-15  0.00E+00  0.00E+00  3.55E-07  8.31E-05  6.33E-03  0.00000
   1532.    6.527  3.00E-07  7.05E-05  6.72E-18  1.58E-15  0.00E+00  0.00E+00  3.00E-07  7.05E-05  6.33E-03  0.00000
   1534.    6.519  2.56E-07  6.03E-05  1.55E-23  3.64E-21  0.00E+00  0.00E+00  2.56E-07  6.03E-05  6.33E-03  0.00000
   1536.    6.510  3.03E-07  7.15E-05  4.62E-23  1.09E-20  0.00E+00  0.00E+00  3.03E-07  7.15E-05  6.34E-03  0.00000
   1538.    6.502  2.41E-07  5.70E-05  1.54E-23  3.64E-21  0.00E+00  0.00E+00  2.41E-07  5.70E-05  6.34E-03  0.00000
   1540.    6.494  1.86E-07  4.41E-05  4.40E-36  1.04E-33  0.00E+00  0.00E+00  1.86E-07  4.41E-05  6.34E-03  0.00000
   1542.    6.485  2.00E-07  4.75E-05  1.32E-35  3.14E-33  0.00E+00  0.00E+00  2.00E-07  4.75E-05  6.34E-03  0.00000
   1544.    6.477  2.36E-07  5.63E-05  2.55E-23  6.09E-21  0.00E+00  0.00E+00  2.36E-07  5.63E-05  6.34E-03  0.00000
   1546.    6.468  2.94E-07  7.02E-05  2.86E-17  6.84E-15  0.00E+00  0.00E+00  2.94E-07  7.02E-05  6.34E-03  0.00000
   1548.    6.460  3.44E-07  8.24E-05  8.34E-17  2.00E-14  0.00E+00  0.00E+00  3.44E-07  8.24E-05  6.34E-03  0.00000
   1550.    6.452  3.09E-07  7.42E-05  2.79E-17  6.69E-15  0.00E+00  0.00E+00  3.09E-07  7.42E-05  6.34E-03  0.00000
   1552.    6.443  3.01E-07  7.25E-05  3.67E-19  8.83E-17  0.00E+00  0.00E+00  3.01E-07  7.25E-05  6.34E-03  0.00000
   1554.    6.435  2.51E-07  6.06E-05  2.44E-19  5.89E-17  0.00E+00  0.00E+00  2.51E-07  6.06E-05  6.34E-03  0.00000
   1556.    6.427  2.20E-07  5.32E-05  6.80E-20  1.65E-17  0.00E+00  0.00E+00  2.20E-07  5.32E-05  6.34E-03  0.00000
   1558.    6.418  1.78E-07  4.32E-05  2.59E-37  6.28E-35  0.00E+00  0.00E+00  1.78E-07  4.32E-05  6.34E-03  0.00000
   1560.    6.410  1.81E-07  4.40E-05  5.22E-32  1.27E-29  0.00E+00  0.00E+00  1.81E-07  4.40E-05  6.34E-03  0.00000
   1562.    6.402  2.54E-07  6.21E-05  1.79E-22  4.36E-20  0.00E+00  0.00E+00  2.54E-07  6.21E-05  6.34E-03  0.00000
   1564.    6.394  2.71E-07  6.62E-05  7.95E-18  1.94E-15  0.00E+00  0.00E+00  2.71E-07  6.62E-05  6.34E-03  0.00000
   1566.    6.386  2.90E-07  7.11E-05  1.49E-17  3.66E-15  0.00E+00  0.00E+00  2.90E-07  7.11E-05  6.34E-03  0.00000
   1568.    6.378  2.65E-07  6.52E-05  8.48E-18  2.08E-15  0.00E+00  0.00E+00  2.65E-07  6.52E-05  6.34E-03  0.00000
   1570.    6.369  2.28E-07  5.62E-05  5.93E-18  1.46E-15  0.00E+00  0.00E+00  2.28E-07  5.62E-05  6.34E-03  0.00000
   1572.    6.361  2.98E-07  7.36E-05  7.02E-18  1.74E-15  0.00E+00  0.00E+00  2.98E-07  7.36E-05  6.34E-03  0.00000
   1574.    6.353  2.74E-07  6.80E-05  4.31E-14  1.07E-11  0.00E+00  0.00E+00  2.74E-07  6.80E-05  6.34E-03  0.00000
   1576.    6.345  1.95E-07  4.85E-05  1.29E-13  3.21E-11  0.00E+00  0.00E+00  1.95E-07  4.85E-05  6.35E-03  0.00000
   1578.    6.337  2.46E-07  6.13E-05  6.09E-14  1.52E-11  0.00E+00  0.00E+00  2.46E-07  6.13E-05  6.35E-03  0.00000
   1580.    6.329  3.57E-07  8.92E-05  3.90E-12  9.74E-10  0.00E+00  0.00E+00  3.57E-07  8.92E-05  6.35E-03  0.00001
   1582.    6.321  4.06E-07  1.02E-04  6.53E-11  1.63E-08  0.00E+00  0.00E+00  4.06E-07  1.02E-04  6.35E-03  0.00010
   1584.    6.313  4.36E-07  1.09E-04  3.89E-10  9.76E-08  0.00E+00  0.00E+00  4.36E-07  1.09E-04  6.35E-03  0.00058
   1586.    6.305  4.51E-07  1.13E-04  8.92E-10  2.24E-07  0.00E+00  0.00E+00  4.52E-07  1.14E-04  6.35E-03  0.00134
   1588.    6.297  4.36E-07  1.10E-04  9.32E-10  2.35E-07  0.00E+00  0.00E+00  4.37E-07  1.10E-04  6.35E-03  0.00141
   1590.    6.289  3.90E-07  9.86E-05  3.43E-10  8.67E-08  0.00E+00  0.00E+00  3.90E-07  9.87E-05  6.35E-03  0.00052
   1592.    6.281  3.71E-07  9.41E-05  1.74E-10  4.40E-08  0.00E+00  0.00E+00  3.71E-07  9.41E-05  6.35E-03  0.00027
   1594.    6.274  3.39E-07  8.63E-05  1.00E-10  2.54E-08  0.00E+00  0.00E+00  3.40E-07  8.63E-05  6.35E-03  0.00015
   1596.    6.266  3.54E-07  9.02E-05  3.36E-10  8.57E-08  0.00E+00  0.00E+00  3.54E-07  9.03E-05  6.35E-03  0.00053
   1598.    6.258  4.23E-07  1.08E-04  1.70E-09  4.35E-07  0.00E+00  0.00E+00  4.25E-07  1.08E-04  6.35E-03  0.00268
   1600.    6.250  4.01E-07  1.03E-04  1.44E-09  3.69E-07  0.00E+00  0.00E+00  4.03E-07  1.03E-04  6.35E-03  0.00228
  iv         1605
1                                             RADIANCE(WATTS/CM2-STER-XXX)
0  FREQ   WAVLEN    PATH THERMAL      SURFACE EMISSION    SURFACE REFLECTED     TOTAL RADIANCE   INTEGRAL    TOTAL
  (CM-1) (MICRN)    (CM-1)   (MICRN)    (CM-1)   (MICRN)    (CM-1)   (MICRN)    (CM-1)   (MICRN)    (CM-1)   TRANS

   1602.    6.242  3.35E-07  8.59E-05  1.86E-10  4.78E-08  0.00E+00  0.00E+00  3.35E-07  8.59E-05  6.35E-03  0.00029
   1604.    6.234  3.57E-07  9.19E-05  2.13E-10  5.47E-08  0.00E+00  0.00E+00  3.58E-07  9.20E-05  6.36E-03  0.00034
   1606.    6.227  3.56E-07  9.19E-05  2.43E-10  6.27E-08  0.00E+00  0.00E+00  3.56E-07  9.19E-05  6.36E-03  0.00039
   1608.    6.219  2.91E-07  7.52E-05  1.72E-11  4.46E-09  0.00E+00  0.00E+00  2.91E-07  7.52E-05  6.36E-03  0.00003
   1610.    6.211  3.04E-07  7.89E-05  8.79E-12  2.28E-09  0.00E+00  0.00E+00  3.04E-07  7.89E-05  6.36E-03  0.00001
   1612.    6.203  3.39E-07  8.80E-05  1.10E-11  2.85E-09  0.00E+00  0.00E+00  3.39E-07  8.80E-05  6.36E-03  0.00002
   1614.    6.196  2.79E-07  7.28E-05  1.34E-12  3.48E-10  0.00E+00  0.00E+00  2.79E-07  7.28E-05  6.36E-03  0.00000
   1616.    6.188  1.80E-07  4.70E-05  4.40E-13  1.15E-10  0.00E+00  0.00E+00  1.80E-07  4.70E-05  6.36E-03  0.00000
   1618.    6.180  1.96E-07  5.13E-05  4.40E-13  1.15E-10  0.00E+00  0.00E+00  1.96E-07  5.13E-05  6.36E-03  0.00000
   1620.    6.173  2.62E-07  6.88E-05  3.81E-16  9.99E-14  0.00E+00  0.00E+00  2.62E-07  6.88E-05  6.36E-03  0.00000
   1622.    6.165  2.25E-07  5.91E-05  1.91E-15  5.04E-13  0.00E+00  0.00E+00  2.25E-07  5.91E-05  6.36E-03  0.00000
   1624.    6.158  1.90E-07  5.01E-05  4.85E-15  1.28E-12  0.00E+00  0.00E+00  1.90E-07  5.01E-05  6.36E-03  0.00000
   1626.    6.150  2.17E-07  5.73E-05  5.57E-15  1.47E-12  0.00E+00  0.00E+00  2.17E-07  5.73E-05  6.36E-03  0.00000
   1628.    6.143  2.14E-07  5.68E-05  2.78E-14  7.37E-12  0.00E+00  0.00E+00  2.14E-07  5.68E-05  6.36E-03  0.00000
   1630.    6.135  2.76E-07  7.33E-05  1.04E-13  2.77E-11  0.00E+00  0.00E+00  2.76E-07  7.33E-05  6.36E-03  0.00000
   1632.    6.127  2.72E-07  7.25E-05  6.98E-14  1.86E-11  0.00E+00  0.00E+00  2.72E-07  7.25E-05  6.36E-03  0.00000
   1634.    6.120  1.83E-07  4.88E-05  6.87E-16  1.83E-13  0.00E+00  0.00E+00  1.83E-07  4.88E-05  6.36E-03  0.00000
   1636.    6.112  1.38E-07  3.68E-05  3.78E-24  1.01E-21  0.00E+00  0.00E+00  1.38E-07  3.68E-05  6.36E-03  0.00000
   1638.    6.105  1.76E-07  4.72E-05  1.52E-17  4.08E-15  0.00E+00  0.00E+00  1.76E-07  4.72E-05  6.36E-03  0.00000
   1640.    6.098  2.30E-07  6.17E-05  4.14E-16  1.11E-13  0.00E+00  0.00E+00  2.30E-07  6.17E-05  6.36E-03  0.00000
   1642.    6.090  2.46E-07  6.64E-05  6.12E-16  1.65E-13  0.00E+00  0.00E+00  2.46E-07  6.64E-05  6.36E-03  0.00000
   1644.    6.083  2.05E-07  5.53E-05  1.21E-16  3.26E-14  0.00E+00  0.00E+00  2.05E-07  5.53E-05  6.37E-03  0.00000
   1646.    6.075  1.38E-07  3.75E-05  7.67E-23  2.08E-20  0.00E+00  0.00E+00  1.38E-07  3.75E-05  6.37E-03  0.00000
   1648.    6.068  1.44E-07  3.90E-05  1.93E-23  5.24E-21  0.00E+00  0.00E+00  1.44E-07  3.90E-05  6.37E-03  0.00000
   1650.    6.061  1.62E-07  4.42E-05  3.42E-31  9.32E-29  0.00E+00  0.00E+00  1.62E-07  4.42E-05  6.37E-03  0.00000
   1652.    6.053  1.25E-07  3.42E-05  1.14E-31  3.11E-29  0.00E+00  0.00E+00  1.25E-07  3.42E-05  6.37E-03  0.00000
   1654.    6.046  1.18E-07  3.23E-05  1.73E-32  4.74E-30  0.00E+00  0.00E+00  1.18E-07  3.23E-05  6.37E-03  0.00000
   1656.    6.039  1.77E-07  4.85E-05  3.43E-17  9.40E-15  0.00E+00  0.00E+00  1.77E-07  4.85E-05  6.37E-03  0.00000
   1658.    6.031  2.40E-07  6.60E-05  1.71E-15  4.69E-13  0.00E+00  0.00E+00  2.40E-07  6.60E-05  6.37E-03  0.00000
   1660.    6.024  2.36E-07  6.49E-05  2.44E-15  6.72E-13  0.00E+00  0.00E+00  2.36E-07  6.49E-05  6.37E-03  0.00000
   1662.    6.017  1.72E-07  4.76E-05  1.67E-15  4.62E-13  0.00E+00  0.00E+00  1.72E-07  4.76E-05  6.37E-03  0.00000
   1664.    6.010  1.95E-07  5.40E-05  1.88E-15  5.19E-13  0.00E+00  0.00E+00  1.95E-07  5.40E-05  6.37E-03  0.00000
   1666.    6.002  2.32E-07  6.43E-05  1.38E-15  3.83E-13  0.00E+00  0.00E+00  2.32E-07  6.43E-05  6.37E-03  0.00000
   1668.    5.995  1.67E-07  4.65E-05  3.89E-16  1.08E-13  0.00E+00  0.00E+00  1.67E-07  4.65E-05  6.37E-03  0.00000
   1670.    5.988  1.27E-07  3.55E-05  1.98E-23  5.53E-21  0.00E+00  0.00E+00  1.27E-07  3.55E-05  6.37E-03  0.00000
   1672.    5.981  1.55E-07  4.33E-05  5.38E-22  1.50E-19  0.00E+00  0.00E+00  1.55E-07  4.33E-05  6.37E-03  0.00000
   1674.    5.974  1.60E-07  4.49E-05  5.38E-22  1.51E-19  0.00E+00  0.00E+00  1.60E-07  4.49E-05  6.37E-03  0.00000
   1676.    5.967  1.50E-07  4.21E-05  2.76E-18  7.77E-16  0.00E+00  0.00E+00  1.50E-07  4.21E-05  6.37E-03  0.00000
   1678.    5.959  1.88E-07  5.30E-05  8.30E-18  2.34E-15  0.00E+00  0.00E+00  1.88E-07  5.30E-05  6.37E-03  0.00000
   1680.    5.952  1.76E-07  4.97E-05  2.78E-18  7.84E-16  0.00E+00  0.00E+00  1.76E-07  4.97E-05  6.37E-03  0.00000
   1682.    5.945  1.49E-07  4.21E-05  4.23E-21  1.20E-18  0.00E+00  0.00E+00  1.49E-07  4.21E-05  6.37E-03  0.00000
   1684.    5.938  1.10E-07  3.11E-05  7.30E-23  2.07E-20  0.00E+00  0.00E+00  1.10E-07  3.11E-05  6.37E-03  0.00000
   1686.    5.931  1.34E-07  3.82E-05  8.47E-22  2.41E-19  0.00E+00  0.00E+00  1.34E-07  3.82E-05  6.37E-03  0.00000
   1688.    5.924  1.63E-07  4.64E-05  1.42E-18  4.05E-16  0.00E+00  0.00E+00  1.63E-07  4.64E-05  6.37E-03  0.00000
   1690.    5.917  1.71E-07  4.88E-05  7.87E-18  2.25E-15  0.00E+00  0.00E+00  1.71E-07  4.88E-05  6.37E-03  0.00000
   1692.    5.910  1.88E-07  5.39E-05  1.23E-17  3.52E-15  0.00E+00  0.00E+00  1.88E-07  5.39E-05  6.37E-03  0.00000
   1694.    5.903  1.51E-07  4.34E-05  3.65E-18  1.05E-15  0.00E+00  0.00E+00  1.51E-07  4.34E-05  6.37E-03  0.00000
   1696.    5.896  1.11E-07  3.20E-05  1.62E-32  4.67E-30  0.00E+00  0.00E+00  1.11E-07  3.20E-05  6.37E-03  0.00000
   1698.    5.889  1.12E-07  3.22E-05  3.47E-38  1.00E-35  0.00E+00  0.00E+00  1.12E-07  3.22E-05  6.37E-03  0.00000
   1700.    5.882  9.73E-08  2.81E-05  1.15E-38  3.32E-36  0.00E+00  0.00E+00  9.73E-08  2.81E-05  6.37E-03  0.00000
  iv         1705
1                                             RADIANCE(WATTS/CM2-STER-XXX)
0  FREQ   WAVLEN    PATH THERMAL      SURFACE EMISSION    SURFACE REFLECTED     TOTAL RADIANCE   INTEGRAL    TOTAL
  (CM-1) (MICRN)    (CM-1)   (MICRN)    (CM-1)   (MICRN)    (CM-1)   (MICRN)    (CM-1)   (MICRN)    (CM-1)   TRANS

   1702.    5.875  1.22E-07  3.53E-05  5.91E-21  1.71E-18  0.00E+00  0.00E+00  1.22E-07  3.53E-05  6.37E-03  0.00000
   1704.    5.869  1.29E-07  3.73E-05  6.74E-20  1.96E-17  0.00E+00  0.00E+00  1.29E-07  3.73E-05  6.37E-03  0.00000
   1706.    5.862  1.24E-07  3.60E-05  9.83E-19  2.86E-16  0.00E+00  0.00E+00  1.24E-07  3.60E-05  6.37E-03  0.00000
   1708.    5.855  1.68E-07  4.89E-05  4.56E-15  1.33E-12  0.00E+00  0.00E+00  1.68E-07  4.89E-05  6.38E-03  0.00000
   1710.    5.848  1.86E-07  5.43E-05  6.67E-15  1.95E-12  0.00E+00  0.00E+00  1.86E-07  5.43E-05  6.38E-03  0.00000
   1712.    5.841  1.87E-07  5.49E-05  6.07E-15  1.78E-12  0.00E+00  0.00E+00  1.87E-07  5.49E-05  6.38E-03  0.00000
   1714.    5.834  1.45E-07  4.25E-05  2.04E-15  5.99E-13  0.00E+00  0.00E+00  1.45E-07  4.25E-05  6.38E-03  0.00000
   1716.    5.828  1.08E-07  3.18E-05  2.44E-20  7.18E-18  0.00E+00  0.00E+00  1.08E-07  3.18E-05  6.38E-03  0.00000
   1718.    5.821  1.04E-07  3.07E-05  2.44E-20  7.20E-18  0.00E+00  0.00E+00  1.04E-07  3.07E-05  6.38E-03  0.00000
   1720.    5.814  1.59E-07  4.69E-05  2.98E-14  8.80E-12  0.00E+00  0.00E+00  1.59E-07  4.69E-05  6.38E-03  0.00000
   1722.    5.807  1.96E-07  5.81E-05  1.08E-13  3.20E-11  0.00E+00  0.00E+00  1.96E-07  5.81E-05  6.38E-03  0.00000
   1724.    5.800  2.12E-07  6.31E-05  1.57E-11  4.68E-09  0.00E+00  0.00E+00  2.12E-07  6.31E-05  6.38E-03  0.00004
   1726.    5.794  2.32E-07  6.90E-05  2.67E-11  7.96E-09  0.00E+00  0.00E+00  2.32E-07  6.90E-05  6.38E-03  0.00007
   1728.    5.787  2.11E-07  6.31E-05  1.08E-11  3.23E-09  0.00E+00  0.00E+00  2.11E-07  6.31E-05  6.38E-03  0.00003
   1730.    5.780  1.58E-07  4.74E-05  1.68E-12  5.03E-10  0.00E+00  0.00E+00  1.58E-07  4.74E-05  6.38E-03  0.00000
   1732.    5.774  1.24E-07  3.71E-05  4.61E-19  1.38E-16  0.00E+00  0.00E+00  1.24E-07  3.71E-05  6.38E-03  0.00000
   1734.    5.767  9.60E-08  2.89E-05  9.41E-25  2.83E-22  0.00E+00  0.00E+00  9.60E-08  2.89E-05  6.38E-03  0.00000
   1736.    5.760  1.27E-07  3.83E-05  4.27E-19  1.29E-16  0.00E+00  0.00E+00  1.27E-07  3.83E-05  6.38E-03  0.00000
   1738.    5.754  1.32E-07  3.99E-05  1.50E-14  4.52E-12  0.00E+00  0.00E+00  1.32E-07  3.99E-05  6.38E-03  0.00000
   1740.    5.747  1.19E-07  3.61E-05  4.55E-14  1.38E-11  0.00E+00  0.00E+00  1.19E-07  3.61E-05  6.38E-03  0.00000
   1742.    5.741  1.45E-07  4.41E-05  1.67E-14  5.06E-12  0.00E+00  0.00E+00  1.45E-07  4.41E-05  6.38E-03  0.00000
   1744.    5.734  1.40E-07  4.25E-05  2.49E-15  7.57E-13  0.00E+00  0.00E+00  1.40E-07  4.25E-05  6.38E-03  0.00000
   1746.    5.727  1.37E-07  4.19E-05  3.68E-15  1.12E-12  0.00E+00  0.00E+00  1.37E-07  4.19E-05  6.38E-03  0.00000
   1748.    5.721  1.17E-07  3.59E-05  1.02E-15  3.13E-13  0.00E+00  0.00E+00  1.17E-07  3.59E-05  6.38E-03  0.00000
   1750.    5.714  1.18E-07  3.60E-05  1.42E-16  4.34E-14  0.00E+00  0.00E+00  1.18E-07  3.60E-05  6.38E-03  0.00000
   1752.    5.708  1.50E-07  4.60E-05  6.20E-12  1.90E-09  0.00E+00  0.00E+00  1.50E-07  4.60E-05  6.38E-03  0.00002
   1754.    5.701  1.98E-07  6.10E-05  2.88E-11  8.87E-09  0.00E+00  0.00E+00  1.98E-07  6.10E-05  6.38E-03  0.00008
   1756.    5.695  1.72E-07  5.30E-05  1.77E-11  5.45E-09  0.00E+00  0.00E+00  1.72E-07  5.30E-05  6.38E-03  0.00005
   1758.    5.688  1.69E-07  5.22E-05  2.14E-12  6.60E-10  0.00E+00  0.00E+00  1.69E-07  5.22E-05  6.38E-03  0.00001
   1760.    5.682  1.64E-07  5.09E-05  2.52E-12  7.80E-10  0.00E+00  0.00E+00  1.64E-07  5.09E-05  6.38E-03  0.00001
   1762.    5.675  1.35E-07  4.20E-05  5.06E-12  1.57E-09  0.00E+00  0.00E+00  1.35E-07  4.20E-05  6.38E-03  0.00001
   1764.    5.669  1.86E-07  5.79E-05  7.03E-11  2.19E-08  0.00E+00  0.00E+00  1.86E-07  5.79E-05  6.38E-03  0.00021
   1766.    5.663  2.01E-07  6.27E-05  1.29E-10  4.03E-08  0.00E+00  0.00E+00  2.01E-07  6.28E-05  6.38E-03  0.00038
   1768.    5.656  1.51E-07  4.71E-05  3.18E-11  9.94E-09  0.00E+00  0.00E+00  1.51E-07  4.72E-05  6.38E-03  0.00009
   1770.    5.650  1.19E-07  3.73E-05  7.37E-18  2.31E-15  0.00E+00  0.00E+00  1.19E-07  3.73E-05  6.38E-03  0.00000
   1772.    5.643  8.76E-08  2.75E-05  8.40E-15  2.64E-12  0.00E+00  0.00E+00  8.76E-08  2.75E-05  6.38E-03  0.00000
   1774.    5.637  1.11E-07  3.50E-05  4.89E-14  1.54E-11  0.00E+00  0.00E+00  1.11E-07  3.50E-05  6.39E-03  0.00000
   1776.    5.631  1.55E-07  4.88E-05  2.25E-11  7.11E-09  0.00E+00  0.00E+00  1.55E-07  4.88E-05  6.39E-03  0.00007
   1778.    5.624  1.78E-07  5.63E-05  5.53E-11  1.75E-08  0.00E+00  0.00E+00  1.78E-07  5.63E-05  6.39E-03  0.00017
   1780.    5.618  1.45E-07  4.59E-05  1.85E-11  5.85E-09  0.00E+00  0.00E+00  1.45E-07  4.59E-05  6.39E-03  0.00006
   1782.    5.612  1.61E-07  5.12E-05  1.37E-10  4.36E-08  0.00E+00  0.00E+00  1.61E-07  5.12E-05  6.39E-03  0.00044
   1784.    5.605  1.76E-07  5.61E-05  3.80E-10  1.21E-07  0.00E+00  0.00E+00  1.77E-07  5.62E-05  6.39E-03  0.00122
   1786.    5.599  1.98E-07  6.32E-05  2.01E-09  6.40E-07  0.00E+00  0.00E+00  2.00E-07  6.39E-05  6.39E-03  0.00647
   1788.    5.593  2.09E-07  6.68E-05  1.82E-09  5.82E-07  0.00E+00  0.00E+00  2.11E-07  6.74E-05  6.39E-03  0.00588
   1790.    5.587  1.49E-07  4.79E-05  1.81E-10  5.80E-08  0.00E+00  0.00E+00  1.50E-07  4.79E-05  6.39E-03  0.00059
   1792.    5.580  9.68E-08  3.11E-05  1.58E-12  5.08E-10  0.00E+00  0.00E+00  9.68E-08  3.11E-05  6.39E-03  0.00001
   1794.    5.574  1.14E-07  3.67E-05  1.63E-12  5.26E-10  0.00E+00  0.00E+00  1.14E-07  3.67E-05  6.39E-03  0.00001
   1796.    5.568  1.43E-07  4.62E-05  2.35E-11  7.58E-09  0.00E+00  0.00E+00  1.43E-07  4.62E-05  6.39E-03  0.00008
   1798.    5.562  1.52E-07  4.91E-05  6.97E-11  2.25E-08  0.00E+00  0.00E+00  1.52E-07  4.91E-05  6.39E-03  0.00024
   1800.    5.556  1.20E-07  3.89E-05  3.60E-11  1.17E-08  0.00E+00  0.00E+00  1.20E-07  3.89E-05  6.39E-03  0.00012
  iv         1805
1                                             RADIANCE(WATTS/CM2-STER-XXX)
0  FREQ   WAVLEN    PATH THERMAL      SURFACE EMISSION    SURFACE REFLECTED     TOTAL RADIANCE   INTEGRAL    TOTAL
  (CM-1) (MICRN)    (CM-1)   (MICRN)    (CM-1)   (MICRN)    (CM-1)   (MICRN)    (CM-1)   (MICRN)    (CM-1)   TRANS

   1802.    5.549  1.47E-07  4.78E-05  1.22E-09  3.96E-07  0.00E+00  0.00E+00  1.48E-07  4.82E-05  6.39E-03  0.00421
   1804.    5.543  1.94E-07  6.31E-05  5.26E-09  1.71E-06  0.00E+00  0.00E+00  1.99E-07  6.48E-05  6.39E-03  0.01818
   1806.    5.537  2.03E-07  6.62E-05  5.49E-09  1.79E-06  0.00E+00  0.00E+00  2.08E-07  6.80E-05  6.39E-03  0.01905
   1808.    5.531  1.87E-07  6.10E-05  2.47E-09  8.09E-07  0.00E+00  0.00E+00  1.89E-07  6.18E-05  6.39E-03  0.00864
   1810.    5.525  1.46E-07  4.78E-05  6.84E-10  2.24E-07  0.00E+00  0.00E+00  1.47E-07  4.81E-05  6.39E-03  0.00240
   1812.    5.519  1.54E-07  5.06E-05  4.03E-09  1.32E-06  0.00E+00  0.00E+00  1.58E-07  5.19E-05  6.39E-03  0.01445
   1814.    5.513  2.00E-07  6.57E-05  2.43E-08  7.98E-06  0.00E+00  0.00E+00  2.24E-07  7.37E-05  6.39E-03  0.08725
   1816.    5.507  1.97E-07  6.51E-05  2.91E-08  9.60E-06  0.00E+00  0.00E+00  2.27E-07  7.47E-05  6.39E-03  0.10508
   1818.    5.501  1.94E-07  6.42E-05  3.34E-08  1.10E-05  0.00E+00  0.00E+00  2.28E-07  7.52E-05  6.39E-03  0.12182
   1820.    5.495  1.97E-07  6.53E-05  3.62E-08  1.20E-05  0.00E+00  0.00E+00  2.33E-07  7.73E-05  6.39E-03  0.13267
   1822.    5.488  1.89E-07  6.27E-05  1.15E-08  3.82E-06  0.00E+00  0.00E+00  2.00E-07  6.65E-05  6.39E-03  0.04235
   1824.    5.482  1.43E-07  4.77E-05  8.81E-10  2.93E-07  0.00E+00  0.00E+00  1.44E-07  4.80E-05  6.39E-03  0.00326
   1826.    5.476  1.27E-07  4.25E-05  2.94E-11  9.80E-09  0.00E+00  0.00E+00  1.27E-07  4.25E-05  6.39E-03  0.00011
   1828.    5.470  1.28E-07  4.27E-05  2.82E-11  9.42E-09  0.00E+00  0.00E+00  1.28E-07  4.27E-05  6.39E-03  0.00011
   1830.    5.464  9.49E-08  3.18E-05  1.03E-11  3.46E-09  0.00E+00  0.00E+00  9.49E-08  3.18E-05  6.39E-03  0.00004
   1832.    5.459  1.45E-07  4.87E-05  1.81E-09  6.06E-07  0.00E+00  0.00E+00  1.47E-07  4.93E-05  6.39E-03  0.00701
   1834.    5.453  1.85E-07  6.22E-05  6.35E-09  2.13E-06  0.00E+00  0.00E+00  1.91E-07  6.43E-05  6.40E-03  0.02466
   1836.    5.447  1.66E-07  5.60E-05  4.39E-09  1.48E-06  0.00E+00  0.00E+00  1.71E-07  5.75E-05  6.40E-03  0.01709
   1838.    5.441  1.65E-07  5.56E-05  4.68E-09  1.58E-06  0.00E+00  0.00E+00  1.69E-07  5.72E-05  6.40E-03  0.01854
   1840.    5.435  1.83E-07  6.21E-05  8.79E-09  2.98E-06  0.00E+00  0.00E+00  1.92E-07  6.51E-05  6.40E-03  0.03491
   1842.    5.429  1.40E-07  4.76E-05  3.02E-09  1.02E-06  0.00E+00  0.00E+00  1.43E-07  4.87E-05  6.40E-03  0.01202
   1844.    5.423  8.69E-08  2.95E-05  4.22E-12  1.44E-09  0.00E+00  0.00E+00  8.69E-08  2.96E-05  6.40E-03  0.00002
   1846.    5.417  1.08E-07  3.67E-05  1.44E-11  4.90E-09  0.00E+00  0.00E+00  1.08E-07  3.67E-05  6.40E-03  0.00006
   1848.    5.411  1.43E-07  4.88E-05  5.20E-09  1.78E-06  0.00E+00  0.00E+00  1.48E-07  5.06E-05  6.40E-03  0.02147
   1850.    5.405  1.65E-07  5.66E-05  2.94E-08  1.01E-05  0.00E+00  0.00E+00  1.95E-07  6.66E-05  6.40E-03  0.12184
   1852.    5.400  1.59E-07  5.45E-05  4.98E-08  1.71E-05  0.00E+00  0.00E+00  2.09E-07  7.16E-05  6.40E-03  0.20780
   1854.    5.394  1.45E-07  4.98E-05  6.95E-08  2.39E-05  0.00E+00  0.00E+00  2.14E-07  7.37E-05  6.40E-03  0.29214
   1856.    5.388  1.43E-07  4.92E-05  7.04E-08  2.42E-05  0.00E+00  0.00E+00  2.13E-07  7.35E-05  6.40E-03  0.29785
   1858.    5.382  1.56E-07  5.37E-05  3.96E-08  1.37E-05  0.00E+00  0.00E+00  1.95E-07  6.74E-05  6.40E-03  0.16873
   1860.    5.376  1.58E-07  5.45E-05  3.04E-08  1.05E-05  0.00E+00  0.00E+00  1.88E-07  6.50E-05  6.40E-03  0.13091
   1862.    5.371  1.55E-07  5.39E-05  4.21E-08  1.46E-05  0.00E+00  0.00E+00  1.97E-07  6.85E-05  6.40E-03  0.18256
   1864.    5.365  1.56E-07  5.42E-05  2.75E-08  9.55E-06  0.00E+00  0.00E+00  1.83E-07  6.37E-05  6.40E-03  0.11984
   1866.    5.359  1.20E-07  4.17E-05  4.59E-09  1.60E-06  0.00E+00  0.00E+00  1.24E-07  4.33E-05  6.40E-03  0.02011
   1868.    5.353  7.80E-08  2.72E-05  7.83E-12  2.73E-09  0.00E+00  0.00E+00  7.80E-08  2.72E-05  6.40E-03  0.00003
   1870.    5.348  9.78E-08  3.42E-05  2.00E-09  7.00E-07  0.00E+00  0.00E+00  9.98E-08  3.49E-05  6.40E-03  0.00903
   1872.    5.342  1.43E-07  5.02E-05  2.56E-08  8.98E-06  0.00E+00  0.00E+00  1.69E-07  5.92E-05  6.40E-03  0.11619
   1874.    5.336  1.32E-07  4.64E-05  7.09E-08  2.49E-05  0.00E+00  0.00E+00  2.03E-07  7.13E-05  6.40E-03  0.32275
   1876.    5.330  1.13E-07  3.98E-05  9.03E-08  3.18E-05  0.00E+00  0.00E+00  2.03E-07  7.16E-05  6.40E-03  0.41411
   1878.    5.325  1.10E-07  3.87E-05  8.99E-08  3.17E-05  0.00E+00  0.00E+00  2.00E-07  7.04E-05  6.40E-03  0.41536
   1880.    5.319  1.04E-07  3.66E-05  9.63E-08  3.40E-05  0.00E+00  0.00E+00  2.00E-07  7.07E-05  6.40E-03  0.44869
   1882.    5.313  9.95E-08  3.53E-05  1.01E-07  3.57E-05  0.00E+00  0.00E+00  2.00E-07  7.09E-05  6.40E-03  0.47246
   1884.    5.308  1.26E-07  4.48E-05  4.66E-08  1.65E-05  0.00E+00  0.00E+00  1.73E-07  6.13E-05  6.40E-03  0.21962
   1886.    5.302  1.38E-07  4.92E-05  3.14E-08  1.12E-05  0.00E+00  0.00E+00  1.70E-07  6.04E-05  6.40E-03  0.15004
   1888.    5.297  1.30E-07  4.62E-05  2.22E-08  7.91E-06  0.00E+00  0.00E+00  1.52E-07  5.41E-05  6.40E-03  0.10635
   1890.    5.291  1.13E-07  4.03E-05  5.64E-09  2.02E-06  0.00E+00  0.00E+00  1.18E-07  4.23E-05  6.40E-03  0.02745
   1892.    5.285  1.38E-07  4.94E-05  2.19E-08  7.85E-06  0.00E+00  0.00E+00  1.60E-07  5.72E-05  6.40E-03  0.10746
   1894.    5.280  1.32E-07  4.74E-05  1.75E-08  6.29E-06  0.00E+00  0.00E+00  1.50E-07  5.37E-05  6.41E-03  0.08604
   1896.    5.274  1.20E-07  4.30E-05  2.45E-08  8.82E-06  0.00E+00  0.00E+00  1.44E-07  5.18E-05  6.41E-03  0.12242
   1898.    5.269  1.00E-07  3.61E-05  7.99E-08  2.88E-05  0.00E+00  0.00E+00  1.80E-07  6.49E-05  6.41E-03  0.40065
   1900.    5.263  7.68E-08  2.77E-05  1.09E-07  3.94E-05  0.00E+00  0.00E+00  1.86E-07  6.71E-05  6.41E-03  0.55086
  iv         1905
1                                             RADIANCE(WATTS/CM2-STER-XXX)
0  FREQ   WAVLEN    PATH THERMAL      SURFACE EMISSION    SURFACE REFLECTED     TOTAL RADIANCE   INTEGRAL    TOTAL
  (CM-1) (MICRN)    (CM-1)   (MICRN)    (CM-1)   (MICRN)    (CM-1)   (MICRN)    (CM-1)   (MICRN)    (CM-1)   TRANS

   1902.    5.258  9.07E-08  3.28E-05  8.32E-08  3.01E-05  0.00E+00  0.00E+00  1.74E-07  6.29E-05  6.41E-03  0.42252
   1904.    5.252  1.09E-07  3.97E-05  4.80E-08  1.74E-05  0.00E+00  0.00E+00  1.57E-07  5.71E-05  6.41E-03  0.24599
   1906.    5.247  1.17E-07  4.24E-05  3.55E-08  1.29E-05  0.00E+00  0.00E+00  1.52E-07  5.53E-05  6.41E-03  0.18314
   1908.    5.241  1.10E-07  4.01E-05  1.00E-08  3.65E-06  0.00E+00  0.00E+00  1.20E-07  4.37E-05  6.41E-03  0.05190
   1910.    5.236  1.06E-07  3.86E-05  1.28E-08  4.67E-06  0.00E+00  0.00E+00  1.19E-07  4.33E-05  6.41E-03  0.06772
   1912.    5.230  1.05E-07  3.83E-05  4.93E-08  1.80E-05  0.00E+00  0.00E+00  1.54E-07  5.63E-05  6.41E-03  0.26171
   1914.    5.225  1.05E-07  3.83E-05  5.70E-08  2.09E-05  0.00E+00  0.00E+00  1.62E-07  5.92E-05  6.41E-03  0.30411
   1916.    5.219  1.09E-07  4.02E-05  2.79E-08  1.03E-05  0.00E+00  0.00E+00  1.37E-07  5.04E-05  6.41E-03  0.14969
   1918.    5.214  8.91E-08  3.28E-05  3.97E-09  1.46E-06  0.00E+00  0.00E+00  9.31E-08  3.42E-05  6.41E-03  0.02144
   1920.    5.208  1.07E-07  3.93E-05  5.38E-09  1.98E-06  0.00E+00  0.00E+00  1.12E-07  4.13E-05  6.41E-03  0.02948
   1922.    5.203  1.03E-07  3.79E-05  4.15E-09  1.53E-06  0.00E+00  0.00E+00  1.07E-07  3.95E-05  6.41E-03  0.02277
   1924.    5.198  9.88E-08  3.66E-05  1.69E-08  6.27E-06  0.00E+00  0.00E+00  1.16E-07  4.28E-05  6.41E-03  0.09470
   1926.    5.192  8.81E-08  3.27E-05  6.83E-08  2.53E-05  0.00E+00  0.00E+00  1.56E-07  5.80E-05  6.41E-03  0.38326
   1928.    5.187  6.00E-08  2.23E-05  1.07E-07  3.99E-05  0.00E+00  0.00E+00  1.67E-07  6.22E-05  6.41E-03  0.60660
   1930.    5.181  4.91E-08  1.83E-05  1.19E-07  4.42E-05  0.00E+00  0.00E+00  1.68E-07  6.25E-05  6.41E-03  0.67508
   1932.    5.176  6.45E-08  2.41E-05  7.52E-08  2.81E-05  0.00E+00  0.00E+00  1.40E-07  5.21E-05  6.41E-03  0.43054
   1934.    5.171  6.79E-08  2.54E-05  6.69E-08  2.50E-05  0.00E+00  0.00E+00  1.35E-07  5.04E-05  6.41E-03  0.38775
   1936.    5.165  5.43E-08  2.03E-05  1.07E-07  3.99E-05  0.00E+00  0.00E+00  1.61E-07  6.03E-05  6.41E-03  0.62134
   1938.    5.160  6.14E-08  2.31E-05  1.01E-07  3.81E-05  0.00E+00  0.00E+00  1.63E-07  6.12E-05  6.41E-03  0.59611
   1940.    5.155  8.73E-08  3.28E-05  6.27E-08  2.36E-05  0.00E+00  0.00E+00  1.50E-07  5.65E-05  6.41E-03  0.37075
   1942.    5.149  9.31E-08  3.51E-05  1.43E-08  5.41E-06  0.00E+00  0.00E+00  1.07E-07  4.05E-05  6.41E-03  0.08515
   1944.    5.144  9.58E-08  3.62E-05  2.76E-09  1.04E-06  0.00E+00  0.00E+00  9.86E-08  3.73E-05  6.41E-03  0.01666
   1946.    5.139  9.97E-08  3.78E-05  1.61E-08  6.09E-06  0.00E+00  0.00E+00  1.16E-07  4.38E-05  6.41E-03  0.09823
   1948.    5.133  7.89E-08  2.99E-05  6.68E-08  2.54E-05  0.00E+00  0.00E+00  1.46E-07  5.53E-05  6.41E-03  0.41003
   1950.    5.128  5.27E-08  2.01E-05  1.04E-07  3.94E-05  0.00E+00  0.00E+00  1.56E-07  5.94E-05  6.41E-03  0.63890
   1952.    5.123  4.55E-08  1.73E-05  1.10E-07  4.20E-05  0.00E+00  0.00E+00  1.56E-07  5.93E-05  6.41E-03  0.68495
   1954.    5.118  7.26E-08  2.77E-05  6.98E-08  2.66E-05  0.00E+00  0.00E+00  1.42E-07  5.44E-05  6.41E-03  0.43668
   1956.    5.112  7.75E-08  2.96E-05  5.99E-08  2.29E-05  0.00E+00  0.00E+00  1.37E-07  5.26E-05  6.41E-03  0.37926
   1958.    5.107  5.04E-08  1.93E-05  9.90E-08  3.79E-05  0.00E+00  0.00E+00  1.49E-07  5.73E-05  6.41E-03  0.63135
   1960.    5.102  5.44E-08  2.09E-05  8.88E-08  3.41E-05  0.00E+00  0.00E+00  1.43E-07  5.50E-05  6.41E-03  0.56998
   1962.    5.097  6.14E-08  2.36E-05  8.04E-08  3.09E-05  0.00E+00  0.00E+00  1.42E-07  5.46E-05  6.41E-03  0.52120
   1964.    5.092  5.47E-08  2.11E-05  8.78E-08  3.39E-05  0.00E+00  0.00E+00  1.43E-07  5.50E-05  6.42E-03  0.57299
   1966.    5.086  8.01E-08  3.10E-05  3.16E-08  1.22E-05  0.00E+00  0.00E+00  1.12E-07  4.32E-05  6.42E-03  0.20718
   1968.    5.081  8.33E-08  3.23E-05  3.24E-08  1.25E-05  0.00E+00  0.00E+00  1.16E-07  4.48E-05  6.42E-03  0.21584
   1970.    5.076  4.63E-08  1.80E-05  9.66E-08  3.75E-05  0.00E+00  0.00E+00  1.43E-07  5.54E-05  6.42E-03  0.64718
   1972.    5.071  2.18E-08  8.47E-06  1.25E-07  4.85E-05  0.00E+00  0.00E+00  1.46E-07  5.69E-05  6.42E-03  0.84109
   1974.    5.066  2.21E-08  8.61E-06  1.22E-07  4.75E-05  0.00E+00  0.00E+00  1.44E-07  5.61E-05  6.42E-03  0.82929
   1976.    5.061  3.39E-08  1.32E-05  1.06E-07  4.13E-05  0.00E+00  0.00E+00  1.40E-07  5.45E-05  6.42E-03  0.72504
   1978.    5.056  2.32E-08  9.09E-06  1.18E-07  4.63E-05  0.00E+00  0.00E+00  1.42E-07  5.54E-05  6.42E-03  0.81870
   1980.    5.051  1.77E-08  6.93E-06  1.24E-07  4.87E-05  0.00E+00  0.00E+00  1.42E-07  5.56E-05  6.42E-03  0.86524
   1982.    5.045  1.95E-08  7.66E-06  1.21E-07  4.76E-05  0.00E+00  0.00E+00  1.41E-07  5.52E-05  6.42E-03  0.85044
   1984.    5.040  2.06E-08  8.11E-06  1.19E-07  4.68E-05  0.00E+00  0.00E+00  1.40E-07  5.49E-05  6.42E-03  0.84261
   1986.    5.035  4.01E-08  1.58E-05  9.16E-08  3.61E-05  0.00E+00  0.00E+00  1.32E-07  5.20E-05  6.42E-03  0.65323
   1988.    5.030  7.39E-08  2.92E-05  4.31E-08  1.70E-05  0.00E+00  0.00E+00  1.17E-07  4.62E-05  6.42E-03  0.30938
   1990.    5.025  8.35E-08  3.31E-05  2.88E-08  1.14E-05  0.00E+00  0.00E+00  1.12E-07  4.45E-05  6.42E-03  0.20877
   1992.    5.020  7.67E-08  3.04E-05  1.53E-08  6.08E-06  0.00E+00  0.00E+00  9.20E-08  3.65E-05  6.42E-03  0.11206
   1994.    5.015  5.74E-08  2.28E-05  5.51E-08  2.19E-05  0.00E+00  0.00E+00  1.12E-07  4.47E-05  6.42E-03  0.40808
   1996.    5.010  3.38E-08  1.35E-05  9.79E-08  3.90E-05  0.00E+00  0.00E+00  1.32E-07  5.24E-05  6.42E-03  0.72807
   1998.    5.005  4.56E-08  1.82E-05  7.81E-08  3.12E-05  0.00E+00  0.00E+00  1.24E-07  4.94E-05  6.42E-03  0.58521
   2000.    5.000  3.63E-08  1.45E-05  8.71E-08  3.49E-05  0.00E+00  0.00E+00  1.23E-07  4.94E-05  6.42E-03  0.65979
  iv         2005
1                                             RADIANCE(WATTS/CM2-STER-XXX)
0  FREQ   WAVLEN    PATH THERMAL      SURFACE EMISSION    SURFACE REFLECTED     TOTAL RADIANCE   INTEGRAL    TOTAL
  (CM-1) (MICRN)    (CM-1)   (MICRN)    (CM-1)   (MICRN)    (CM-1)   (MICRN)    (CM-1)   (MICRN)    (CM-1)   TRANS

   2002.    4.995  1.41E-08  5.63E-06  1.16E-07  4.64E-05  0.00E+00  0.00E+00  1.30E-07  5.20E-05  6.42E-03  0.88271
   2004.    4.990  1.17E-08  4.71E-06  1.17E-07  4.70E-05  0.00E+00  0.00E+00  1.29E-07  5.17E-05  6.42E-03  0.89997
   2006.    4.985  2.41E-08  9.71E-06  1.01E-07  4.07E-05  0.00E+00  0.00E+00  1.25E-07  5.05E-05  6.42E-03  0.78404
   2008.    4.980  4.62E-08  1.86E-05  7.13E-08  2.88E-05  0.00E+00  0.00E+00  1.17E-07  4.74E-05  6.42E-03  0.55688
   2010.    4.975  3.24E-08  1.31E-05  8.76E-08  3.54E-05  0.00E+00  0.00E+00  1.20E-07  4.85E-05  6.42E-03  0.69091
   2012.    4.970  1.47E-08  5.96E-06  1.09E-07  4.42E-05  0.00E+00  0.00E+00  1.24E-07  5.02E-05  6.42E-03  0.86763
   2014.    4.965  2.68E-08  1.09E-05  9.42E-08  3.82E-05  0.00E+00  0.00E+00  1.21E-07  4.91E-05  6.42E-03  0.75359
   2016.    4.960  6.14E-08  2.49E-05  4.11E-08  1.67E-05  0.00E+00  0.00E+00  1.03E-07  4.17E-05  6.42E-03  0.33085
   2018.    4.955  7.25E-08  2.95E-05  1.97E-08  8.04E-06  0.00E+00  0.00E+00  9.22E-08  3.76E-05  6.42E-03  0.16125
   2020.    4.950  4.92E-08  2.01E-05  6.00E-08  2.45E-05  0.00E+00  0.00E+00  1.09E-07  4.46E-05  6.42E-03  0.49416
   2022.    4.946  3.11E-08  1.27E-05  8.38E-08  3.43E-05  0.00E+00  0.00E+00  1.15E-07  4.70E-05  6.42E-03  0.69387
   2024.    4.941  2.88E-08  1.18E-05  8.54E-08  3.50E-05  0.00E+00  0.00E+00  1.14E-07  4.68E-05  6.42E-03  0.71344
   2026.    4.936  3.01E-08  1.24E-05  8.09E-08  3.32E-05  0.00E+00  0.00E+00  1.11E-07  4.56E-05  6.42E-03  0.68046
   2028.    4.931  2.59E-08  1.06E-05  8.44E-08  3.47E-05  0.00E+00  0.00E+00  1.10E-07  4.54E-05  6.42E-03  0.71736
   2030.    4.926  9.79E-09  4.03E-06  1.04E-07  4.30E-05  0.00E+00  0.00E+00  1.14E-07  4.70E-05  6.42E-03  0.89354
   2032.    4.921  9.66E-09  3.99E-06  1.03E-07  4.27E-05  0.00E+00  0.00E+00  1.13E-07  4.67E-05  6.42E-03  0.89238
   2034.    4.916  1.43E-08  5.92E-06  9.71E-08  4.02E-05  0.00E+00  0.00E+00  1.11E-07  4.61E-05  6.42E-03  0.84491
   2036.    4.912  1.85E-08  7.66E-06  8.74E-08  3.62E-05  0.00E+00  0.00E+00  1.06E-07  4.39E-05  6.42E-03  0.76682
   2038.    4.907  2.66E-08  1.11E-05  7.48E-08  3.11E-05  0.00E+00  0.00E+00  1.01E-07  4.21E-05  6.42E-03  0.66190
   2040.    4.902  3.75E-08  1.56E-05  5.87E-08  2.44E-05  0.00E+00  0.00E+00  9.62E-08  4.00E-05  6.42E-03  0.52313
   2042.    4.897  5.11E-08  2.13E-05  4.04E-08  1.69E-05  0.00E+00  0.00E+00  9.15E-08  3.82E-05  6.42E-03  0.36369
   2044.    4.892  3.88E-08  1.62E-05  5.43E-08  2.27E-05  0.00E+00  0.00E+00  9.31E-08  3.89E-05  6.42E-03  0.49273
   2046.    4.888  2.88E-08  1.20E-05  6.62E-08  2.77E-05  0.00E+00  0.00E+00  9.50E-08  3.98E-05  6.42E-03  0.60601
   2048.    4.883  2.72E-08  1.14E-05  6.35E-08  2.66E-05  0.00E+00  0.00E+00  9.07E-08  3.81E-05  6.43E-03  0.58609
   2050.    4.878  2.43E-08  1.02E-05  6.19E-08  2.60E-05  0.00E+00  0.00E+00  8.63E-08  3.63E-05  6.43E-03  0.57603
   2052.    4.873  2.63E-08  1.11E-05  5.67E-08  2.39E-05  0.00E+00  0.00E+00  8.29E-08  3.49E-05  6.43E-03  0.53146
   2054.    4.869  2.69E-08  1.14E-05  5.46E-08  2.31E-05  0.00E+00  0.00E+00  8.16E-08  3.44E-05  6.43E-03  0.51677
   2056.    4.864  2.62E-08  1.11E-05  5.45E-08  2.31E-05  0.00E+00  0.00E+00  8.07E-08  3.41E-05  6.43E-03  0.52012
   2058.    4.859  2.86E-08  1.21E-05  4.95E-08  2.10E-05  0.00E+00  0.00E+00  7.81E-08  3.31E-05  6.43E-03  0.47544
   2060.    4.854  3.39E-08  1.44E-05  3.96E-08  1.68E-05  0.00E+00  0.00E+00  7.36E-08  3.12E-05  6.43E-03  0.38413
   2062.    4.850  3.25E-08  1.38E-05  4.01E-08  1.70E-05  0.00E+00  0.00E+00  7.25E-08  3.08E-05  6.43E-03  0.39178
   2064.    4.845  4.09E-08  1.74E-05  2.46E-08  1.05E-05  0.00E+00  0.00E+00  6.54E-08  2.79E-05  6.43E-03  0.24162
   2066.    4.840  3.92E-08  1.67E-05  2.85E-08  1.22E-05  0.00E+00  0.00E+00  6.77E-08  2.89E-05  6.43E-03  0.28404
   2068.    4.836  2.58E-08  1.10E-05  4.76E-08  2.04E-05  0.00E+00  0.00E+00  7.34E-08  3.14E-05  6.43E-03  0.47750
   2070.    4.831  2.21E-08  9.48E-06  5.21E-08  2.23E-05  0.00E+00  0.00E+00  7.42E-08  3.18E-05  6.43E-03  0.52662
   2072.    4.826  2.43E-08  1.04E-05  5.11E-08  2.19E-05  0.00E+00  0.00E+00  7.54E-08  3.24E-05  6.43E-03  0.52088
   2074.    4.822  2.87E-08  1.23E-05  4.76E-08  2.05E-05  0.00E+00  0.00E+00  7.63E-08  3.28E-05  6.43E-03  0.48969
   2076.    4.817  2.55E-08  1.10E-05  3.09E-08  1.33E-05  0.00E+00  0.00E+00  5.64E-08  2.43E-05  6.43E-03  0.31986
   2078.    4.812  2.48E-08  1.07E-05  1.55E-08  6.67E-06  0.00E+00  0.00E+00  4.03E-08  1.74E-05  6.43E-03  0.16188
   2080.    4.808  2.45E-08  1.06E-05  3.91E-08  1.69E-05  0.00E+00  0.00E+00  6.36E-08  2.75E-05  6.43E-03  0.41272
   2082.    4.803  1.97E-08  8.53E-06  5.28E-08  2.29E-05  0.00E+00  0.00E+00  7.25E-08  3.14E-05  6.43E-03  0.56129
   2084.    4.798  1.51E-08  6.56E-06  5.84E-08  2.54E-05  0.00E+00  0.00E+00  7.35E-08  3.19E-05  6.43E-03  0.62655
   2086.    4.794  1.66E-08  7.22E-06  5.69E-08  2.48E-05  0.00E+00  0.00E+00  7.35E-08  3.20E-05  6.43E-03  0.61499
   2088.    4.789  2.05E-08  8.94E-06  5.15E-08  2.25E-05  0.00E+00  0.00E+00  7.20E-08  3.14E-05  6.43E-03  0.56134
   2090.    4.785  2.51E-08  1.10E-05  4.37E-08  1.91E-05  0.00E+00  0.00E+00  6.89E-08  3.01E-05  6.43E-03  0.48076
   2092.    4.780  2.04E-08  8.95E-06  4.63E-08  2.03E-05  0.00E+00  0.00E+00  6.68E-08  2.92E-05  6.43E-03  0.51363
   2094.    4.776  1.74E-08  7.62E-06  4.75E-08  2.08E-05  0.00E+00  0.00E+00  6.48E-08  2.84E-05  6.43E-03  0.53109
   2096.    4.771  1.19E-08  5.22E-06  5.88E-08  2.58E-05  0.00E+00  0.00E+00  7.06E-08  3.10E-05  6.43E-03  0.66260
   2098.    4.766  1.05E-08  4.64E-06  6.08E-08  2.68E-05  0.00E+00  0.00E+00  7.14E-08  3.14E-05  6.43E-03  0.69142
   2100.    4.762  1.11E-08  4.91E-06  5.97E-08  2.63E-05  0.00E+00  0.00E+00  7.08E-08  3.12E-05  6.43E-03  0.68414
  iv         2105
1                                             RADIANCE(WATTS/CM2-STER-XXX)
0  FREQ   WAVLEN    PATH THERMAL      SURFACE EMISSION    SURFACE REFLECTED     TOTAL RADIANCE   INTEGRAL    TOTAL
  (CM-1) (MICRN)    (CM-1)   (MICRN)    (CM-1)   (MICRN)    (CM-1)   (MICRN)    (CM-1)   (MICRN)    (CM-1)   TRANS

   2102.    4.757  7.92E-09  3.50E-06  6.30E-08  2.79E-05  0.00E+00  0.00E+00  7.10E-08  3.14E-05  6.43E-03  0.72913
   2104.    4.753  7.60E-09  3.36E-06  6.28E-08  2.78E-05  0.00E+00  0.00E+00  7.04E-08  3.12E-05  6.43E-03  0.73242
   2106.    4.748  1.20E-08  5.33E-06  5.59E-08  2.48E-05  0.00E+00  0.00E+00  6.79E-08  3.01E-05  6.43E-03  0.65698
   2108.    4.744  1.03E-08  4.59E-06  5.52E-08  2.45E-05  0.00E+00  0.00E+00  6.55E-08  2.91E-05  6.43E-03  0.65460
   2110.    4.739  6.83E-09  3.04E-06  6.25E-08  2.78E-05  0.00E+00  0.00E+00  6.94E-08  3.09E-05  6.43E-03  0.74813
   2112.    4.735  7.94E-09  3.54E-06  6.72E-08  3.00E-05  0.00E+00  0.00E+00  7.52E-08  3.35E-05  6.43E-03  0.81052
   2114.    4.730  1.78E-08  7.95E-06  5.25E-08  2.34E-05  0.00E+00  0.00E+00  7.03E-08  3.14E-05  6.43E-03  0.63731
   2116.    4.726  1.58E-08  7.08E-06  4.84E-08  2.17E-05  0.00E+00  0.00E+00  6.43E-08  2.88E-05  6.43E-03  0.59446
   2118.    4.721  6.67E-09  2.99E-06  5.50E-08  2.47E-05  0.00E+00  0.00E+00  6.16E-08  2.76E-05  6.43E-03  0.67972
   2120.    4.717  7.34E-09  3.30E-06  5.20E-08  2.34E-05  0.00E+00  0.00E+00  5.94E-08  2.67E-05  6.43E-03  0.64857
   2122.    4.713  7.96E-09  3.58E-06  5.07E-08  2.28E-05  0.00E+00  0.00E+00  5.87E-08  2.64E-05  6.43E-03  0.63795
   2124.    4.708  8.82E-09  3.98E-06  5.03E-08  2.27E-05  0.00E+00  0.00E+00  5.91E-08  2.67E-05  6.43E-03  0.63756
   2126.    4.704  6.98E-09  3.15E-06  5.50E-08  2.48E-05  0.00E+00  0.00E+00  6.19E-08  2.80E-05  6.43E-03  0.70319
   2128.    4.699  7.71E-09  3.49E-06  5.43E-08  2.46E-05  0.00E+00  0.00E+00  6.20E-08  2.81E-05  6.43E-03  0.70031
   2130.    4.695  9.71E-09  4.41E-06  5.37E-08  2.44E-05  0.00E+00  0.00E+00  6.34E-08  2.88E-05  6.43E-03  0.69890
   2132.    4.690  4.01E-09  1.82E-06  6.68E-08  3.04E-05  0.00E+00  0.00E+00  7.08E-08  3.22E-05  6.43E-03  0.87703
   2134.    4.686  4.77E-09  2.17E-06  6.87E-08  3.13E-05  0.00E+00  0.00E+00  7.34E-08  3.34E-05  6.43E-03  0.90798
   2136.    4.682  1.53E-08  7.00E-06  5.62E-08  2.57E-05  0.00E+00  0.00E+00  7.16E-08  3.27E-05  6.43E-03  0.74979
   2138.    4.677  1.68E-08  7.67E-06  5.46E-08  2.50E-05  0.00E+00  0.00E+00  7.14E-08  3.26E-05  6.43E-03  0.73511
   2140.    4.673  8.37E-09  3.83E-06  6.39E-08  2.92E-05  0.00E+00  0.00E+00  7.22E-08  3.31E-05  6.43E-03  0.86687
   2142.    4.669  2.99E-09  1.37E-06  6.93E-08  3.18E-05  0.00E+00  0.00E+00  7.22E-08  3.31E-05  6.43E-03  0.94774
   2144.    4.664  6.29E-09  2.89E-06  6.48E-08  2.98E-05  0.00E+00  0.00E+00  7.11E-08  3.27E-05  6.43E-03  0.89397
   2146.    4.660  8.83E-09  4.07E-06  6.14E-08  2.83E-05  0.00E+00  0.00E+00  7.02E-08  3.23E-05  6.43E-03  0.85421
   2148.    4.655  5.58E-09  2.57E-06  6.45E-08  2.97E-05  0.00E+00  0.00E+00  7.01E-08  3.23E-05  6.43E-03  0.90516
   2150.    4.651  3.41E-09  1.58E-06  6.62E-08  3.06E-05  0.00E+00  0.00E+00  6.96E-08  3.22E-05  6.43E-03  0.93740
   2152.    4.647  5.85E-09  2.71E-06  6.27E-08  2.90E-05  0.00E+00  0.00E+00  6.86E-08  3.18E-05  6.43E-03  0.89508
   2154.    4.643  5.87E-09  2.72E-06  6.20E-08  2.88E-05  0.00E+00  0.00E+00  6.79E-08  3.15E-05  6.43E-03  0.89340
   2156.    4.638  4.51E-09  2.10E-06  6.31E-08  2.93E-05  0.00E+00  0.00E+00  6.76E-08  3.14E-05  6.43E-03  0.91551
   2158.    4.634  4.32E-09  2.01E-06  6.26E-08  2.92E-05  0.00E+00  0.00E+00  6.69E-08  3.12E-05  6.43E-03  0.91690
   2160.    4.630  5.32E-09  2.48E-06  6.08E-08  2.84E-05  0.00E+00  0.00E+00  6.62E-08  3.09E-05  6.43E-03  0.89814
   2162.    4.625  9.67E-09  4.52E-06  5.53E-08  2.58E-05  0.00E+00  0.00E+00  6.49E-08  3.03E-05  6.43E-03  0.82289
   2164.    4.621  6.65E-09  3.11E-06  5.81E-08  2.72E-05  0.00E+00  0.00E+00  6.47E-08  3.03E-05  6.43E-03  0.87255
   2166.    4.617  4.12E-09  1.93E-06  6.03E-08  2.83E-05  0.00E+00  0.00E+00  6.44E-08  3.02E-05  6.43E-03  0.91301
   2168.    4.613  4.03E-09  1.89E-06  5.98E-08  2.81E-05  0.00E+00  0.00E+00  6.38E-08  3.00E-05  6.43E-03  0.91352
   2170.    4.608  5.36E-09  2.52E-06  5.77E-08  2.72E-05  0.00E+00  0.00E+00  6.30E-08  2.97E-05  6.43E-03  0.88838
   2172.    4.604  5.78E-09  2.73E-06  5.66E-08  2.67E-05  0.00E+00  0.00E+00  6.24E-08  2.94E-05  6.43E-03  0.87981
   2174.    4.600  4.54E-09  2.14E-06  5.74E-08  2.71E-05  0.00E+00  0.00E+00  6.20E-08  2.93E-05  6.43E-03  0.90000
   2176.    4.596  4.47E-09  2.12E-06  5.69E-08  2.69E-05  0.00E+00  0.00E+00  6.14E-08  2.91E-05  6.43E-03  0.89926
   2178.    4.591  4.54E-09  2.15E-06  5.62E-08  2.67E-05  0.00E+00  0.00E+00  6.08E-08  2.88E-05  6.43E-03  0.89625
   2180.    4.587  5.86E-09  2.79E-06  5.42E-08  2.58E-05  0.00E+00  0.00E+00  6.01E-08  2.85E-05  6.43E-03  0.87127
   2182.    4.583  5.98E-09  2.85E-06  5.35E-08  2.55E-05  0.00E+00  0.00E+00  5.95E-08  2.83E-05  6.43E-03  0.86760
   2184.    4.579  5.55E-09  2.65E-06  5.34E-08  2.55E-05  0.00E+00  0.00E+00  5.89E-08  2.81E-05  6.43E-03  0.87295
   2186.    4.575  7.15E-09  3.42E-06  5.11E-08  2.44E-05  0.00E+00  0.00E+00  5.83E-08  2.78E-05  6.43E-03  0.84276
   2188.    4.570  6.79E-09  3.25E-06  5.10E-08  2.44E-05  0.00E+00  0.00E+00  5.78E-08  2.76E-05  6.43E-03  0.84782
   2190.    4.566  5.49E-09  2.63E-06  5.18E-08  2.49E-05  0.00E+00  0.00E+00  5.73E-08  2.75E-05  6.43E-03  0.86967
   2192.    4.562  5.78E-09  2.78E-06  5.10E-08  2.45E-05  0.00E+00  0.00E+00  5.68E-08  2.73E-05  6.43E-03  0.86284
   2194.    4.558  6.16E-09  2.97E-06  5.00E-08  2.41E-05  0.00E+00  0.00E+00  5.62E-08  2.71E-05  6.43E-03  0.85403
   2196.    4.554  5.82E-09  2.81E-06  4.99E-08  2.40E-05  0.00E+00  0.00E+00  5.57E-08  2.69E-05  6.44E-03  0.85826
   2198.    4.550  6.34E-09  3.06E-06  4.87E-08  2.35E-05  0.00E+00  0.00E+00  5.51E-08  2.66E-05  6.44E-03  0.84589
   2200.    4.545  7.25E-09  3.51E-06  4.72E-08  2.28E-05  0.00E+00  0.00E+00  5.44E-08  2.63E-05  6.44E-03  0.82581
0INTEGRATED ABSORPTION FROM    2 TO 2200 CM-1 =   1500.75 CM-1
 AVERAGE TRANSMITTANCE =0.3172

0INTEGRATED RADIANCE =  6.435E-03 WATTS CM-2 STER-1
 MINIMUM RADIANCE    =  1.077E-09 WATTS CM-2 STER-1 (CM-1)-1 AT        2.0 CM-1
 MAXIMUM RADIANCE    =  9.470E-06 WATTS CM-2 STER-1 (CM-1)-1 AT      498.0 CM-1
 BOUNDARY TEMPERATURE =     257.74 K
 BOUNDARY EMISSIVITY =       0.971
0 CARD 5 *****    0


